Time (s),Pressure 1 (kPa),Pressure 2 (kPa),Switch State
0.127,-7.61,-7.86,1
0.148,-7.61,-7.86,1
0.168,-7.49,-7.86,1
0.188,-7.61,-7.86,1
0.208,-7.49,-7.86,1
0.228,-7.49,-7.86,1
0.248,-7.61,-7.86,1
0.268,-7.61,-7.86,1
0.288,-7.49,-7.86,1
0.308,-7.61,-7.86,1
0.328,-7.49,-7.86,1
0.347,-7.49,-7.86,1
0.368,-7.61,-7.86,1
0.388,-7.61,-7.86,1
0.407,-7.61,-7.86,1
0.428,-7.61,-7.86,1
0.448,-7.49,-7.86,1
0.47,-7.61,-7.86,1
0.487,-7.49,-7.86,1
0.508,-7.49,-7.86,1
0.527,-7.49,-7.86,1
0.548,-7.49,-7.86,1
0.567,-7.49,-7.86,1
0.588,-7.49,-7.86,1
0.608,-7.61,-7.86,1
0.628,-7.49,-7.98,1
0.648,-7.61,-7.86,1
0.668,-7.49,-7.86,1
0.688,-7.49,-7.86,1
0.708,-7.61,-7.86,1
0.728,-7.61,-7.86,1
0.748,-7.61,-7.86,1
0.768,-7.49,-7.86,1
0.788,-7.61,-7.86,1
0.808,-7.61,-7.86,1
0.828,-7.61,-7.86,1
0.848,-7.49,-7.86,1
0.868,-7.49,-7.98,1
0.888,-7.61,-7.86,1
0.908,-7.61,-7.86,1
0.928,-7.61,-7.86,1
0.928,-7.61,-7.86,1
0.949,-7.61,-7.98,1
0.969,-7.61,-7.98,1
0.988,-7.61,-7.98,1
1.009,-7.61,-7.98,1
1.028,-7.61,-7.86,1
1.048,-7.61,-7.86,1
1.069,-7.61,-7.86,1
1.089,-7.61,-7.86,1
1.108,-7.49,-7.86,1
1.129,-7.61,-7.86,1
1.149,-7.49,-7.86,1
1.168,-7.49,-7.86,1
1.188,-7.61,-7.98,1
1.208,-7.61,-7.86,1
1.229,-7.61,-7.98,1
1.248,-7.61,-7.86,1
1.269,-7.61,-7.86,1
1.289,-7.61,-7.98,1
1.309,-7.49,-7.86,1
1.328,-7.61,-7.86,1
1.348,-7.61,-7.86,1
1.368,-7.49,-7.86,1
1.389,-7.61,-7.86,1
1.408,-7.61,-7.86,1
1.429,-7.61,-7.98,1
1.449,-7.61,-7.98,1
1.469,-7.61,-7.86,1
1.489,-7.61,-7.86,1
1.509,-7.61,-7.86,1
1.528,-7.49,-7.86,1
1.548,-7.61,-7.86,1
1.569,-7.61,-7.86,1
1.589,-7.61,-7.86,1
1.608,-7.61,-7.86,1
1.628,-7.49,-7.86,1
1.648,-7.61,-7.86,1
1.67,-7.61,-7.86,1
1.689,-7.49,-7.86,1
1.708,-7.61,-7.86,1
1.729,-7.49,-7.86,1
1.729,-7.61,-7.98,1
1.75,-7.49,-7.86,1
1.77,-7.61,-7.86,1
1.789,-7.61,-7.86,1
1.809,-7.61,-7.86,1
1.83,-7.61,-7.86,1
1.85,-7.61,-7.86,1
1.869,-7.49,-7.86,1
1.889,-7.61,-7.86,1
1.909,-7.49,-7.86,1
1.929,-7.61,-7.86,1
1.949,-7.61,-7.86,1
1.969,-7.61,-7.98,1
1.989,-7.61,-7.86,1
2.009,-7.49,-7.86,1
2.029,-7.49,-7.86,1
2.049,-7.61,-7.98,1
2.07,-7.61,-7.86,1
2.089,-7.49,-7.86,1
2.109,-7.61,-7.86,1
2.129,-7.49,-7.86,1
2.149,-7.61,-7.86,1
2.169,-7.61,-7.86,1
2.189,-7.61,-7.86,1
2.209,-7.61,-7.86,1
2.23,-7.61,-7.86,1
2.25,-7.61,-7.86,1
2.27,-7.61,-7.86,1
2.289,-7.61,-7.86,1
2.309,-7.61,-7.86,1
2.329,-7.61,-7.86,1
2.349,-7.49,-7.86,1
2.369,-7.61,-7.86,1
2.389,-7.61,-7.86,1
2.409,-7.49,-7.86,1
2.43,-7.61,-7.86,1
2.449,-7.49,-7.86,1
2.469,-7.61,-7.86,1
2.489,-7.61,-7.86,1
2.51,-7.49,-7.86,1
2.529,-7.61,-7.86,1
2.529,-7.49,-7.86,1
2.55,-7.61,-7.86,1
2.57,-7.49,-7.86,1
2.589,-7.61,-7.98,1
2.609,-7.61,-7.86,1
2.629,-7.61,-7.86,1
2.649,-7.61,-7.98,1
2.67,-7.61,-7.98,1
2.69,-7.49,-7.86,1
2.709,-7.61,-7.86,1
2.729,-7.49,-7.86,1
2.75,-7.49,-7.86,1
2.769,-7.49,-7.86,1
2.789,-7.49,-7.86,1
2.81,-7.61,-7.86,1
2.83,-7.61,-7.86,1
2.849,-7.49,-7.86,1
2.869,-7.61,-7.86,1
2.889,-7.49,-7.86,1
2.909,-7.49,-7.86,1
2.929,-7.49,-7.86,1
2.929,-7.61,-7.86,1
2.95,-7.61,-7.86,1
2.969,-7.61,-7.86,1
2.99,-7.49,-7.86,1
3.01,-7.49,-7.86,1
3.029,-7.61,-7.86,1
3.049,-7.49,-7.86,1
3.069,-7.61,-7.86,1
3.09,-7.61,-7.86,1
3.109,-7.61,-7.86,1
3.13,-7.49,-7.86,1
3.15,-7.61,-7.86,1
3.169,-7.61,-7.86,1
3.189,-7.61,-7.86,1
3.209,-7.49,-7.86,1
3.23,-7.49,-7.86,1
3.249,-7.61,-7.86,1
3.27,-7.61,-7.86,1
3.29,-7.49,-7.86,1
3.31,-7.49,-7.86,1
3.329,-7.49,-7.86,1
3.35,-7.25,-7.98,1
3.369,-7,-7.86,1
3.39,-7.12,-7.86,1
3.41,-7.12,-7.86,1
3.43,-7.25,-7.86,1
3.45,-7.25,-7.86,1
3.47,-7.25,-7.86,1
3.49,-7.37,-7.86,1
3.51,-7.37,-7.86,1
3.53,-7.49,-7.86,1
3.55,-7.49,-7.86,1
3.57,-7.49,-7.98,1
3.59,-7.49,-7.86,1
3.611,-7.49,-7.86,1
3.63,-7.49,-7.86,1
3.65,-7.49,-7.86,1
3.67,-7.49,-7.86,1
3.69,-7.49,-7.98,1
3.71,-7.49,-8.35,1
3.73,-7.49,-8.71,1
3.73,-7.49,-8.83,1
3.75,-7.49,-8.96,1
3.771,-7.49,-8.83,1
3.791,-7.61,-8.59,1
3.811,-7.61,-8.47,1
3.83,-7.49,-8.22,1
3.85,-7.49,-8.1,1
3.871,-7.61,-8.1,1
3.891,-7.49,-7.98,1
3.911,-7.49,-7.98,1
3.93,-7.61,-7.98,1
3.951,-7.49,-7.86,1
3.97,-7.61,-7.98,1
3.99,-7.49,-7.98,1
4.011,-7.49,-7.98,1
4.03,-7.61,-7.98,1
4.051,-7.61,-7.98,1
4.07,-7.49,-7.98,1
4.09,-7.61,-7.98,1
4.11,-7.61,-7.98,1
4.13,-7.61,-7.86,1
4.13,-7.61,-7.98,1
4.15,-7.61,-7.86,1
4.171,-7.49,-7.86,1
4.19,-7.61,-7.86,1
4.211,-7.61,-7.86,1
4.23,-7.49,-7.86,1
4.251,-7.49,-7.86,1
4.271,-7.49,-7.98,1
4.29,-7.61,-7.86,1
4.311,-7.49,-7.86,1
4.331,-7.61,-7.86,1
4.351,-7.61,-7.98,1
4.371,-7.49,-7.86,1
4.391,-7.49,-7.86,1
4.411,-7.61,-7.86,1
4.431,-7.61,-7.98,1
4.451,-7.49,-7.86,1
4.471,-7.61,-7.86,1
4.491,-7.61,-7.86,1
4.51,-7.61,-7.98,1
4.531,-7.49,-7.98,1
4.552,-7.61,-7.86,1
4.572,-7.61,-7.86,1
4.592,-7.49,-7.98,1
4.611,-6.88,-7.73,1
4.632,-5.54,-6.76,1
4.652,-4.68,-5.78,1
4.672,-3.82,-5.17,1
4.691,-3.09,-4.56,1
4.712,-2.6,-4.07,1
4.731,-2.36,-3.7,1
4.752,-2.11,-3.34,1
4.772,-1.75,-3.09,1
4.792,-1.5,-2.85,1
4.811,-1.38,-2.6,0
4.831,-1.01,-2.48,0
4.852,-0.89,-2.36,0
4.872,-0.77,-2.24,0
4.892,-0.65,-2.11,0
4.912,-0.65,-1.99,0
4.932,-0.53,-1.99,0
4.932,-0.65,-1.87,0
4.952,-0.53,-1.87,0
4.972,-0.53,-1.75,0
4.992,-0.4,-1.75,0
5.013,-0.28,-1.63,0
5.033,-0.28,-1.75,0
5.053,-0.28,-1.63,0
5.073,-0.4,-1.75,0
5.093,-0.4,-1.75,0
5.112,-0.28,-1.75,0
5.132,-0.16,-1.63,0
5.152,-0.04,-1.5,0
5.173,-0.04,-1.5,0
5.193,-0.16,-1.5,0
5.213,-0.77,-2.11,0
5.232,-2.97,-4.07,0
5.253,-4.68,-6.39,0
5.273,-5.78,-8.83,0
5.293,-7.49,-9.93,0
5.313,-9.45,-10.42,0
5.333,-10.42,-10.67,0
5.333,-10.79,-10.91,0
5.353,-10.91,-11.03,0
5.373,-11.03,-11.16,0
5.393,-11.16,-11.16,0
5.414,-11.16,-11.16,0
5.434,-11.28,-11.28,0
5.453,-11.28,-11.16,0
5.473,-11.4,-11.28,0
5.493,-11.28,-11.28,0
5.513,-11.4,-11.28,0
5.534,-11.4,-11.28,0
5.553,-11.4,-11.28,0
5.573,-11.4,-11.28,0
5.593,-11.4,-11.4,0
5.613,-11.4,-11.4,1
5.633,-11.4,-11.28,1
5.653,-11.4,-11.4,1
5.674,-11.4,-11.28,1
5.694,-11.4,-11.28,1
5.717,-11.4,-11.28,1
5.733,-11.4,-11.4,1
5.733,-11.52,-11.4,1
5.754,-11.52,-11.4,1
5.774,-11.4,-11.28,1
5.794,-10.91,-10.67,1
5.814,-10.18,-9.93,1
5.833,-8.96,-8.47,1
5.854,-7.12,-7.12,1
5.873,-5.66,-6.15,1
5.894,-4.8,-5.41,1
5.914,-4.19,-4.68,1
5.933,-3.58,-4.19,1
5.953,-2.97,-3.82,1
5.974,-2.48,-3.58,1
5.993,-2.24,-3.34,1
6.014,-1.99,-3.09,0
6.034,-1.75,-2.97,0
6.054,-1.26,-2.72,0
6.073,-1.26,-2.48,0
6.093,-1.26,-2.36,0
6.114,-1.14,-2.24,0
6.134,-1.01,-2.24,0
6.134,-0.77,-2.24,0
6.155,-0.65,-2.11,0
6.175,-0.77,-2.11,0
6.194,-0.77,-1.99,0
6.215,-0.65,-1.87,0
6.235,-0.53,-1.75,0
6.254,-0.53,-1.75,0
6.275,-0.53,-1.87,0
6.295,-0.4,-1.99,0
6.315,-0.4,-1.87,0
6.334,-0.28,-1.75,0
6.355,-0.28,-1.63,0
6.374,-0.53,-1.5,0
6.394,-1.01,-2.36,0
6.415,-3.21,-4.07,0
6.435,-4.92,-6.02,0
6.455,-6.39,-8.59,0
6.475,-8.71,-9.81,0
6.494,-10.06,-10.42,0
6.515,-10.54,-10.67,0
6.535,-10.91,-10.91,0
6.555,-11.03,-11.03,0
6.575,-11.03,-11.03,0
6.595,-11.03,-11.16,0
6.615,-11.28,-11.16,0
6.635,-11.28,-11.16,0
6.655,-11.4,-11.16,0
6.675,-11.28,-11.16,0
6.695,-11.28,-11.16,0
6.715,-11.28,-11.28,0
6.735,-11.4,-11.28,0
6.755,-11.28,-11.28,0
6.775,-11.28,-11.28,0
6.796,-11.4,-11.28,0
6.816,-11.4,-11.28,1
6.835,-11.4,-11.28,1
6.855,-11.4,-11.28,1
6.875,-11.28,-11.28,1
6.895,-11.4,-11.28,1
6.915,-11.4,-11.28,1
6.935,-11.4,-11.28,1
6.935,-11.4,-11.28,1
6.955,-11.4,-11.4,1
6.975,-11.28,-11.16,1
6.995,-10.79,-10.54,1
7.015,-10.06,-8.96,1
7.036,-8.83,-7.37,1
7.055,-7,-6.39,1
7.076,-5.66,-5.54,1
7.096,-4.8,-4.92,1
7.116,-4.07,-4.44,1
7.135,-3.58,-4.07,1
7.155,-3.09,-3.7,1
7.175,-2.48,-3.46,1
7.196,-2.24,-3.21,1
7.215,-2.11,-2.97,0
7.236,-1.75,-2.85,0
7.256,-1.38,-2.6,0
7.275,-1.26,-2.6,0
7.295,-1.26,-2.48,0
7.315,-1.01,-2.24,0
7.336,-1.01,-2.24,0
7.336,-0.77,-2.24,0
7.356,-0.77,-1.99,0
7.376,-0.65,-1.87,0
7.396,-0.53,-1.87,0
7.417,-0.65,-1.87,0
7.436,-0.4,-1.87,0
7.456,-0.4,-1.87,0
7.476,-0.65,-1.87,0
7.496,-0.4,-1.87,0
7.516,-0.4,-1.75,0
7.536,-0.16,-1.75,0
7.557,-0.04,-1.63,0
7.576,-0.04,-1.63,0
7.596,-1.01,-2.24,0
7.616,-3.09,-3.95,0
7.636,-4.68,-5.66,0
7.656,-6.15,-8.22,0
7.677,-8.47,-9.69,0
7.696,-9.81,-10.3,0
7.716,-10.42,-10.54,0
7.736,-10.79,-10.91,0
7.736,-11.03,-11.03,0
7.756,-11.03,-11.16,0
7.777,-11.16,-11.16,0
7.797,-11.28,-11.16,0
7.817,-11.28,-11.16,0
7.837,-11.4,-11.28,0
7.857,-11.4,-11.28,0
7.876,-11.28,-11.28,0
7.897,-11.4,-11.28,0
7.917,-11.4,-11.28,0
7.937,-11.4,-11.28,0
7.956,-11.4,-11.28,0
7.976,-11.4,-11.28,0
7.996,-11.4,-11.28,1
8.017,-11.52,-11.4,1
8.036,-11.4,-11.28,1
8.057,-11.4,-11.4,1
8.077,-11.4,-11.4,1
8.096,-11.4,-11.4,1
8.116,-11.4,-11.4,1
8.136,-11.4,-11.28,1
8.136,-11.52,-11.4,1
8.156,-11.4,-11.16,1
8.177,-10.91,-10.67,1
8.197,-10.18,-9.93,1
8.217,-9.08,-8.59,1
8.237,-7.25,-7,1
8.257,-5.78,-6.02,1
8.277,-4.8,-5.29,1
8.296,-4.19,-4.8,1
8.317,-3.58,-4.31,1
8.336,-3.09,-3.95,1
8.357,-2.48,-3.58,1
8.379,-2.11,-3.34,1
8.397,-1.99,-3.09,0
8.417,-1.75,-2.85,0
8.437,-1.5,-2.72,0
8.457,-1.14,-2.6,0
8.476,-1.26,-2.48,0
8.497,-1.14,-2.36,0
8.516,-1.01,-2.24,0
8.537,-0.89,-2.24,0
8.558,-0.77,-2.24,0
8.577,-0.77,-2.11,0
8.597,-0.77,-1.99,0
8.617,-0.77,-1.99,0
8.638,-0.53,-1.99,0
8.658,-0.53,-1.87,0
8.677,-0.53,-1.87,0
8.698,-0.53,-1.87,0
8.717,-0.53,-1.87,0
8.737,-0.28,-1.75,0
8.757,-0.16,-1.63,0
8.778,-0.28,-1.63,0
8.797,-1.14,-2.24,0
8.817,-3.09,-4.07,0
8.837,-4.8,-6.02,0
8.857,-6.15,-8.59,0
8.877,-8.47,-9.81,0
8.898,-9.81,-10.3,0
8.917,-10.42,-10.67,0
8.938,-10.79,-10.79,0
8.939,-11.03,-11.03,0
8.959,-11.16,-11.03,0
8.979,-11.16,-11.16,0
8.999,-11.28,-11.16,0
9.02,-11.28,-11.28,0
9.039,-11.4,-11.16,0
9.059,-11.28,-11.28,0
9.079,-11.4,-11.28,0
9.099,-11.28,-11.28,0
9.119,-11.28,-11.28,0
9.139,-11.28,-11.28,0
9.159,-11.4,-11.4,0
9.179,-11.4,-11.28,1
9.199,-11.4,-11.28,1
9.219,-11.4,-11.4,1
9.239,-11.4,-11.4,1
9.259,-11.4,-11.28,1
9.279,-11.4,-11.28,1
9.299,-11.4,-11.4,1
9.319,-11.4,-11.4,1
9.339,-11.52,-11.4,1
9.359,-11.52,-11.4,1
9.379,-11.4,-11.28,1
9.399,-10.79,-10.54,1
9.419,-10.18,-9.08,1
9.439,-8.71,-7.37,1
9.459,-6.88,-6.27,1
9.48,-5.29,-5.54,1
9.499,-4.56,-4.8,1
9.52,-3.95,-4.31,1
9.539,-3.46,-3.95,1
9.559,-2.97,-3.46,1
9.579,-2.36,-3.34,1
9.599,-1.87,-3.09,0
9.619,-1.75,-2.85,0
9.639,-1.63,-2.72,0
9.659,-1.14,-2.48,0
9.68,-1.14,-2.36,0
9.699,-1.14,-2.24,0
9.719,-1.01,-2.24,0
9.739,-1.01,-2.11,0
9.739,-0.65,-2.11,0
9.76,-0.53,-1.99,0
9.779,-0.65,-1.87,0
9.799,-0.65,-1.75,0
9.819,-0.53,-1.87,0
9.839,-0.53,-1.75,0
9.859,-0.4,-1.75,0
9.88,-0.4,-1.87,0
9.9,-0.4,-1.75,0
9.92,-0.04,-1.63,0
9.94,-0.04,-1.63,0
9.959,-0.4,-1.5,0
9.98,-2.11,-3.34,0
9.999,-4.19,-5.05,0
10.02,-5.66,-7.73,0
10.04,-7.98,-9.57,0
10.059,-9.69,-10.18,0
10.08,-10.3,-10.67,0
10.1,-10.79,-10.79,0
10.119,-11.03,-11.03,0
10.14,-11.03,-11.16,0
10.14,-11.16,-11.16,0
10.16,-11.28,-11.16,0
10.181,-11.28,-11.28,0
10.201,-11.28,-11.28,0
10.221,-11.4,-11.28,0
10.24,-11.4,-11.28,0
10.26,-11.4,-11.28,0
10.28,-11.4,-11.28,0
10.301,-11.4,-11.4,0
10.321,-11.4,-11.28,0
10.34,-11.4,-11.28,1
10.361,-11.4,-11.4,1
10.381,-11.4,-11.4,1
10.401,-11.4,-11.4,1
10.42,-11.4,-11.4,1
10.441,-11.4,-11.4,1
10.461,-11.52,-11.4,1
10.481,-11.4,-11.4,1
10.501,-11.52,-11.4,1
10.521,-11.4,-11.28,1
10.541,-11.03,-10.79,1
10.541,-10.18,-9.69,1
10.561,-9.08,-7.98,1
10.581,-7.25,-6.63,1
10.602,-5.66,-5.78,1
10.621,-4.68,-5.05,1
10.641,-3.95,-4.44,1
10.661,-3.46,-4.07,1
10.681,-3.09,-3.7,1
10.701,-2.48,-3.21,1
10.721,-1.99,-3.09,0
10.741,-1.75,-2.97,0
10.761,-1.63,-2.72,0
10.781,-1.26,-2.6,0
10.802,-1.14,-2.36,0
10.821,-1.01,-2.11,0
10.841,-1.01,-2.11,0
10.861,-0.89,-2.11,0
10.881,-0.77,-1.99,0
10.902,-0.4,-1.99,0
10.921,-0.53,-1.87,0
10.941,-0.53,-1.75,0
10.942,-0.53,-1.75,0
10.962,-0.4,-1.75,0
10.983,-0.4,-1.75,0
11.003,-0.4,-1.75,0
11.023,-0.28,-1.75,0
11.043,-0.28,-1.5,0
11.063,0.09,-1.38,0
11.082,-0.04,-1.5,0
11.102,-1.5,-2.72,0
11.123,-3.7,-4.56,0
11.142,-5.29,-6.63,0
11.163,-7.25,-8.96,0
11.183,-9.32,-9.93,0
11.203,-10.18,-10.54,0
11.223,-10.67,-10.79,0
11.243,-11.03,-10.91,0
11.262,-11.16,-11.03,0
11.282,-11.16,-11.16,0
11.302,-11.28,-11.16,0
11.323,-11.28,-11.28,0
11.342,-11.4,-11.28,0
11.363,-11.4,-11.28,0
11.383,-11.4,-11.28,0
11.403,-11.4,-11.4,0
11.423,-11.4,-11.4,0
11.443,-11.4,-11.4,0
11.463,-11.4,-11.4,0
11.483,-11.4,-11.4,0
11.503,-11.4,-11.4,1
11.523,-11.4,-11.4,1
11.543,-11.4,-11.4,1
11.563,-11.4,-11.4,1
11.583,-11.4,-11.4,1
11.603,-11.52,-11.4,1
11.623,-11.52,-11.4,1
11.643,-11.52,-11.4,1
11.663,-11.52,-11.4,1
11.683,-11.03,-10.91,1
11.703,-10.42,-10.3,1
11.722,-9.45,-9.45,1
11.743,-7.61,-7.86,1
11.743,-6.02,-6.63,1
11.764,-4.8,-5.66,1
11.783,-4.07,-4.92,1
11.803,-3.46,-4.44,1
11.823,-3.09,-4.07,1
11.844,-2.6,-3.58,1
11.863,-1.99,-3.34,1
11.884,-1.75,-3.09,0
11.904,-1.63,-2.85,0
11.923,-1.38,-2.72,0
11.943,-1.14,-2.48,0
11.963,-1.01,-2.24,0
11.983,-1.01,-2.11,0
12.004,-1.01,-2.11,0
12.023,-0.89,-1.99,0
12.044,-0.53,-2.11,0
12.063,-0.53,-1.99,0
12.084,-0.77,-1.75,0
12.104,-0.65,-1.75,0
12.123,-0.53,-1.75,0
12.144,-0.53,-1.63,0
12.164,-0.28,-1.75,0
12.184,-0.4,-1.75,0
12.204,-0.4,-1.63,0
12.225,-0.04,-1.5,0
12.245,-0.16,-1.5,0
12.264,-1.26,-2.48,0
12.285,-3.34,-4.31,0
12.304,-5.05,-6.76,0
12.324,-6.76,-8.96,0
12.344,-9.08,-10.06,0
12.364,-10.18,-10.54,0
12.385,-10.67,-10.79,0
12.405,-10.91,-11.03,0
12.424,-11.03,-11.16,0
12.444,-11.16,-11.16,0
12.464,-11.28,-11.16,0
12.485,-11.28,-11.16,0
12.505,-11.28,-11.28,0
12.524,-11.4,-11.28,0
12.545,-11.4,-11.28,0
12.546,-11.4,-11.28,0
12.567,-11.4,-11.4,0
12.586,-11.4,-11.4,0
12.606,-11.4,-11.4,0
12.626,-11.4,-11.4,1
12.646,-11.4,-11.4,1
12.666,-11.4,-11.4,1
12.686,-11.4,-11.28,1
12.706,-11.4,-11.4,1
12.726,-11.52,-11.4,1
12.746,-11.52,-11.4,1
12.766,-11.52,-11.4,1
12.786,-11.52,-11.4,1
12.806,-11.52,-11.4,1
12.826,-11.16,-11.03,1
12.846,-10.54,-10.18,1
12.867,-9.69,-8.35,1
12.887,-7.73,-7,1
12.906,-6.15,-5.9,1
12.927,-4.92,-5.29,1
12.946,-4.19,-4.68,1
12.967,-3.58,-4.07,1
12.987,-3.09,-3.82,1
13.007,-2.72,-3.46,1
13.027,-2.11,-3.09,1
13.046,-1.75,-2.97,0
13.067,-1.63,-2.72,0
13.087,-1.38,-2.6,0
13.107,-1.14,-2.36,0
13.127,-1.01,-2.24,0
13.146,-0.89,-2.11,0
13.166,-0.89,-1.99,0
13.187,-0.89,-1.99,0
13.207,-0.53,-1.87,0
13.227,-0.4,-1.87,0
13.246,-0.53,-1.75,0
13.267,-0.53,-1.63,0
13.287,-0.53,-1.63,0
13.306,-0.4,-1.63,0
13.326,-0.28,-1.5,0
13.346,-0.28,-1.5,0
13.367,-0.16,-1.5,0
13.387,-0.16,-1.38,0
13.407,-0.04,-1.26,0
13.427,-0.89,-2.11,0
13.447,-3.09,-3.95,0
13.467,-4.8,-6.27,0
13.487,-6.39,-8.71,0
13.507,-8.71,-9.93,0
13.527,-9.93,-10.42,0
13.546,-10.67,-10.79,0
13.567,-10.91,-10.91,0
13.587,-11.03,-11.16,0
13.607,-11.03,-11.16,0
13.627,-11.28,-11.16,0
13.647,-11.4,-11.28,0
13.667,-11.4,-11.28,0
13.687,-11.4,-11.28,0
13.708,-11.4,-11.28,0
13.726,-11.4,-11.28,0
13.747,-11.4,-11.28,0
13.747,-11.4,-11.4,0
13.768,-11.4,-11.4,0
13.787,-11.52,-11.4,1
13.807,-11.4,-11.4,1
13.828,-11.4,-11.4,1
13.848,-11.4,-11.4,1
13.868,-11.52,-11.4,1
13.888,-11.52,-11.4,1
13.908,-11.4,-11.4,1
13.927,-11.52,-11.4,1
13.948,-11.4,-11.52,1
13.968,-11.52,-11.4,1
13.987,-11.28,-11.16,1
14.008,-10.67,-10.42,1
14.027,-9.81,-8.96,1
14.048,-8.22,-7.37,1
14.067,-6.51,-6.15,1
14.088,-5.17,-5.41,1
14.108,-4.31,-4.8,1
14.127,-3.7,-4.31,1
14.147,-3.21,-3.82,1
14.147,-2.85,-3.46,1
14.168,-2.24,-3.09,1
14.188,-1.75,-2.97,1
14.208,-1.63,-2.72,0
14.227,-1.38,-2.6,0
14.247,-1.26,-2.36,0
14.267,-0.89,-2.11,0
14.288,-0.89,-1.99,0
14.308,-0.89,-1.99,0
14.327,-0.89,-1.87,0
14.347,-0.65,-1.75,0
14.367,-0.4,-1.87,0
14.387,-0.4,-1.75,0
14.408,-0.53,-1.5,0
14.428,-0.53,-1.63,0
14.448,-0.4,-1.5,0
14.467,-0.28,-1.5,0
14.488,-0.16,-1.63,0
14.508,-0.28,-1.5,0
14.527,-0.28,-1.38,0
14.548,0.09,-1.38,0
14.548,-0.53,-1.63,0
14.569,-2.6,-3.58,0
14.589,-4.56,-5.54,0
14.609,-6.02,-8.22,0
14.629,-8.35,-9.69,0
14.648,-9.81,-10.3,0
14.669,-10.54,-10.67,0
14.688,-10.91,-10.91,0
14.709,-11.03,-11.03,0
14.729,-11.03,-11.16,0
14.749,-11.28,-11.28,0
14.769,-11.28,-11.28,0
14.788,-11.28,-11.28,0
14.808,-11.4,-11.28,0
14.828,-11.4,-11.28,0
14.848,-11.4,-11.4,0
14.869,-11.4,-11.4,0
14.889,-11.4,-11.4,0
14.909,-11.4,-11.4,0
14.928,-11.4,-11.4,1
14.949,-11.52,-11.4,1
14.97,-11.4,-11.4,1
14.99,-11.4,-11.4,1
15.01,-11.52,-11.4,1
15.03,-11.52,-11.4,1
15.049,-11.52,-11.4,1
15.069,-11.52,-11.4,1
15.09,-11.52,-11.52,1
15.109,-11.52,-11.4,1
15.13,-11.4,-11.16,1
15.15,-10.79,-10.67,1
15.17,-10.06,-9.45,1
15.19,-8.71,-7.61,1
15.209,-6.63,-6.39,1
15.229,-5.54,-5.66,1
15.25,-4.44,-4.92,1
15.27,-3.7,-4.44,1
15.289,-3.34,-3.95,1
15.309,-2.97,-3.58,1
15.329,-2.48,-3.21,1
15.35,-1.87,-2.97,1
15.35,-1.63,-2.72,0
15.371,-1.5,-2.72,0
15.391,-1.38,-2.48,0
15.411,-1.14,-2.24,0
15.431,-0.89,-2.11,0
15.45,-0.89,-1.99,0
15.47,-0.89,-1.87,0
15.49,-0.77,-1.87,0
15.51,-0.53,-1.99,0
15.53,-0.53,-1.75,0
15.55,-0.65,-1.63,0
15.571,-0.53,-1.63,0
15.59,-0.65,-1.63,0
15.61,-0.4,-1.5,0
15.631,-0.28,-1.63,0
15.65,-0.4,-1.5,0
15.671,-0.28,-1.38,0
15.69,-0.04,-1.26,0
15.71,-0.28,-1.26,0
15.73,-2.24,-3.21,0
15.75,-4.19,-5.05,0
15.77,-5.66,-7.98,0
15.79,-7.98,-9.57,0
15.811,-9.81,-10.3,0
15.831,-10.42,-10.67,0
15.851,-10.79,-10.91,0
15.87,-11.03,-11.03,0
15.89,-11.03,-11.16,0
15.911,-11.28,-11.16,0
15.93,-11.28,-11.28,0
15.95,-11.28,-11.28,0
15.971,-11.28,-11.28,0
15.99,-11.4,-11.28,0
16.01,-11.4,-11.4,0
16.03,-11.4,-11.4,0
16.051,-11.4,-11.4,0
16.07,-11.4,-11.4,0
16.091,-11.4,-11.4,0
16.11,-11.4,-11.4,1
16.13,-11.4,-11.4,1
16.15,-11.4,-11.4,1
16.15,-11.4,-11.4,1
16.171,-11.4,-11.4,1
16.19,-11.4,-11.4,1
16.21,-11.52,-11.4,1
16.231,-11.52,-11.4,1
16.251,-11.52,-11.4,1
16.27,-11.4,-11.28,1
16.291,-10.91,-10.79,1
16.311,-10.18,-9.57,1
16.331,-8.96,-7.86,1
16.35,-6.88,-6.51,1
16.371,-5.66,-5.66,1
16.391,-4.56,-5.05,1
16.411,-3.82,-4.56,1
16.431,-3.34,-3.95,1
16.451,-2.97,-3.7,1
16.471,-2.6,-3.21,1
16.491,-2.11,-2.97,1
16.511,-1.63,-2.85,0
16.531,-1.5,-2.72,0
16.551,-1.5,-2.48,0
16.551,-1.26,-2.36,0
16.572,-1.01,-2.11,0
16.592,-0.89,-1.99,0
16.612,-0.89,-1.99,0
16.632,-0.89,-1.99,0
16.652,-0.53,-1.87,0
16.671,-0.53,-1.75,0
16.692,-0.53,-1.75,0
16.711,-0.65,-1.63,0
16.731,-0.65,-1.63,0
16.752,-0.4,-1.75,0
16.772,-0.28,-1.63,0
16.791,-0.4,-1.63,0
16.812,-0.16,-1.63,0
16.832,-0.04,-1.38,0
16.852,-0.16,-1.38,0
16.871,-1.87,-3.09,0
16.892,-3.95,-4.92,0
16.912,-5.41,-7.61,0
16.932,-7.61,-9.45,0
16.952,-9.69,-10.18,0
16.952,-10.3,-10.67,0
16.972,-10.79,-10.79,0
16.992,-11.03,-10.91,0
17.012,-11.03,-11.16,0
17.032,-11.16,-11.16,0
17.052,-11.28,-11.16,0
17.072,-11.4,-11.28,0
17.092,-11.28,-11.28,0
17.112,-11.4,-11.4,0
17.132,-11.4,-11.28,0
17.153,-11.4,-11.28,0
17.172,-11.4,-11.28,0
17.192,-11.4,-11.28,0
17.212,-11.4,-11.4,0
17.232,-11.4,-11.4,1
17.252,-11.4,-11.4,1
17.272,-11.4,-11.4,1
17.292,-11.4,-11.4,1
17.312,-11.4,-11.4,1
17.332,-11.4,-11.4,1
17.352,-11.4,-11.4,1
17.372,-11.4,-11.4,1
17.392,-11.52,-11.4,1
17.412,-11.4,-11.28,1
17.432,-11.03,-10.79,1
17.452,-10.3,-9.69,1
17.472,-9.2,-7.98,1
17.492,-7.12,-6.63,1
17.512,-5.66,-5.66,1
17.532,-4.68,-5.05,1
17.552,-3.95,-4.56,1
17.572,-3.46,-4.07,1
17.592,-3.09,-3.7,1
17.612,-2.6,-3.34,1
17.632,-2.11,-3.09,1
17.652,-1.75,-2.85,0
17.672,-1.5,-2.72,0
17.692,-1.38,-2.6,0
17.713,-1.26,-2.36,0
17.732,-0.89,-2.24,0
17.752,-0.89,-2.11,0
17.773,-1.01,-1.99,0
17.793,-0.89,-2.11,0
17.813,-0.65,-1.99,0
17.833,-0.53,-1.87,0
17.853,-0.53,-1.75,0
17.873,-0.65,-1.75,0
17.893,-0.77,-1.63,0
17.912,-0.53,-1.5,0
17.933,-0.4,-1.75,0
17.954,-0.28,-1.63,0
17.974,-0.4,-1.5,0
17.993,-0.16,-1.38,0
18.012,-0.16,-1.5,0
18.033,-1.63,-2.72,0
18.053,-3.7,-4.56,0
18.073,-5.41,-7,0
18.093,-7.37,-9.08,0
18.113,-9.45,-10.06,0
18.133,-10.3,-10.54,0
18.153,-10.67,-10.79,0
18.153,-10.91,-11.03,0
18.173,-11.03,-11.16,0
18.194,-11.16,-11.16,0
18.216,-11.28,-11.16,0
18.233,-11.28,-11.28,0
18.254,-11.28,-11.28,0
18.274,-11.4,-11.28,0
18.293,-11.4,-11.28,0
18.313,-11.4,-11.4,0
18.333,-11.4,-11.4,0
18.353,-11.4,-11.28,0
18.373,-11.4,-11.4,0
18.394,-11.4,-11.4,1
18.414,-11.4,-11.28,1
18.433,-11.4,-11.4,1
18.454,-11.4,-11.4,1
18.473,-11.4,-11.4,1
18.494,-11.4,-11.4,1
18.514,-11.4,-11.4,1
18.534,-11.52,-11.4,1
18.553,-11.52,-11.4,1
18.574,-11.52,-11.4,1
18.593,-11.03,-10.91,1
18.614,-10.42,-9.93,1
18.634,-9.45,-8.35,1
18.654,-7.49,-6.76,1
18.673,-5.9,-5.9,1
18.694,-4.92,-5.17,1
18.714,-4.07,-4.68,1
18.734,-3.46,-4.19,1
18.754,-3.21,-3.7,1
18.774,-2.6,-3.34,1
18.794,-2.24,-3.09,1
18.814,-1.75,-2.85,0
18.834,-1.5,-2.72,0
18.853,-1.5,-2.6,0
18.874,-1.38,-2.36,0
18.894,-1.14,-2.24,0
18.914,-1.01,-2.24,0
18.934,-1.01,-2.11,0
