Time (s),Pressure 1 (kPa),Pressure 2 (kPa),Switch State
0.089,-7.61,-7.86,1
0.109,-7.61,-7.86,1
0.129,-7.61,-7.98,1
0.149,-7.61,-7.98,1
0.169,-7.61,-7.98,1
0.189,-7.61,-7.98,1
0.209,-7.61,-7.86,1
0.229,-7.61,-7.86,1
0.249,-7.61,-7.98,1
0.269,-7.61,-7.98,1
0.289,-7.61,-7.98,1
0.309,-7.61,-7.86,1
0.329,-7.61,-7.98,1
0.349,-7.61,-7.86,1
0.369,-7.61,-7.86,1
0.389,-7.61,-7.98,1
0.409,-7.61,-7.86,1
0.429,-7.61,-7.86,1
0.449,-7.61,-7.98,1
0.469,-7.61,-7.86,1
0.489,-7.61,-7.98,1
0.509,-7.61,-7.98,1
0.529,-7.61,-7.86,1
0.551,-7.61,-7.86,1
0.569,-7.61,-7.86,1
0.589,-7.61,-7.98,1
0.61,-7.61,-7.98,1
0.629,-7.61,-7.86,1
0.649,-7.61,-7.86,1
0.669,-7.61,-7.98,1
0.689,-7.61,-7.86,1
0.71,-7.61,-7.86,1
0.729,-7.61,-7.86,1
0.75,-7.61,-7.86,1
0.769,-7.61,-7.86,1
0.789,-7.61,-7.86,1
0.809,-7.61,-7.86,1
0.829,-7.61,-7.98,1
0.849,-7.61,-7.98,1
0.869,-7.49,-7.98,1
0.889,-7.61,-7.98,1
0.909,-7.61,-7.98,1
0.929,-7.61,-7.98,1
0.95,-7.61,-7.86,1
0.969,-7.61,-7.98,1
0.989,-7.61,-7.98,1
1.01,-7.61,-7.98,1
1.029,-7.61,-7.98,1
1.05,-7.49,-7.98,1
1.069,-7.61,-7.86,1
1.089,-7.61,-7.98,1
1.109,-7.61,-7.86,1
1.129,-7.61,-7.98,1
1.149,-7.61,-7.98,1
1.169,-7.61,-7.98,1
1.189,-7.61,-7.98,1
1.21,-7.61,-7.98,1
1.229,-7.61,-7.86,1
1.249,-7.61,-7.98,1
1.269,-7.49,-7.86,1
1.289,-7.61,-7.98,1
1.29,-7.61,-7.98,1
1.31,-7.61,-7.98,1
1.33,-7.61,-7.98,1
1.35,-7.61,-7.86,1
1.37,-7.61,-7.86,1
1.39,-7.61,-7.86,1
1.41,-7.61,-7.98,1
1.43,-7.61,-7.98,1
1.45,-7.61,-7.86,1
1.47,-7.61,-7.86,1
1.49,-7.61,-7.86,1
1.51,-7.61,-7.86,1
1.53,-7.61,-7.98,1
1.55,-7.61,-7.86,1
1.57,-7.61,-7.86,1
1.59,-7.61,-7.86,1
1.61,-7.61,-7.86,1
1.63,-7.61,-7.98,1
1.65,-7.61,-7.98,1
1.67,-7.61,-7.98,1
1.69,-7.61,-7.86,1
1.71,-7.49,-7.98,1
1.73,-7.61,-7.98,1
1.75,-7.61,-7.98,1
1.77,-7.61,-7.98,1
1.79,-7.61,-7.98,1
1.81,-7.61,-7.98,1
1.83,-7.61,-7.86,1
1.85,-7.61,-7.98,1
1.87,-7.61,-7.86,1
1.89,-7.61,-7.98,1
1.91,-7.61,-7.86,1
1.93,-7.61,-7.98,1
1.95,-7.61,-7.86,1
1.97,-7.61,-7.86,1
1.99,-7.61,-7.86,1
2.01,-7.61,-7.86,1
2.03,-7.61,-7.98,1
2.05,-7.61,-7.98,1
2.07,-7.61,-7.98,1
2.091,-7.61,-7.98,1
2.111,-7.61,-7.86,1
2.131,-7.61,-7.98,1
2.151,-7.61,-7.98,1
2.171,-7.61,-7.98,1
2.191,-7.61,-7.98,1
2.211,-7.61,-7.98,1
2.231,-7.61,-7.98,1
2.251,-7.61,-7.86,1
2.271,-7.61,-7.86,1
2.291,-7.61,-7.98,1
2.312,-7.61,-7.86,1
2.331,-7.61,-7.86,1
2.351,-7.61,-7.86,1
2.371,-7.61,-7.98,1
2.391,-7.61,-7.86,1
2.411,-7.61,-7.86,1
2.431,-7.49,-7.86,1
2.451,-7.61,-7.86,1
2.471,-7.61,-7.86,1
2.491,-7.61,-7.98,1
2.512,-7.61,-7.86,1
2.531,-7.61,-7.98,1
2.551,-7.61,-7.86,1
2.571,-7.61,-7.86,1
2.591,-7.61,-7.98,1
2.611,-7.61,-7.98,1
2.631,-7.61,-7.98,1
2.651,-7.61,-7.98,1
2.671,-7.61,-7.86,1
2.691,-7.61,-7.98,1
2.711,-7.61,-7.86,1
2.731,-7.61,-7.86,1
2.751,-7.61,-7.98,1
2.771,-7.61,-7.98,1
2.791,-7.61,-7.86,1
2.811,-7.61,-7.86,1
2.831,-7.61,-7.98,1
2.851,-7.61,-7.86,1
2.871,-7.61,-7.86,1
2.891,-7.61,-7.86,1
2.892,-7.61,-7.98,1
2.912,-7.61,-7.98,1
2.933,-7.61,-7.86,1
2.952,-7.61,-7.98,1
2.972,-7.61,-7.86,1
2.992,-7.61,-7.98,1
3.012,-7.61,-7.98,1
3.032,-7.61,-7.98,1
3.052,-7.61,-7.98,1
3.072,-7.61,-7.98,1
3.092,-7.61,-7.98,1
3.112,-7.61,-7.86,1
3.132,-7.61,-7.98,1
3.152,-7.61,-7.98,1
3.172,-7.61,-7.86,1
3.192,-7.61,-7.86,1
3.212,-7.61,-7.98,1
3.232,-7.61,-7.98,1
3.252,-7.61,-7.86,1
3.272,-7.61,-7.86,1
3.292,-7.61,-7.86,1
3.292,-7.61,-7.86,1
3.312,-7.61,-7.86,1
3.332,-7.61,-7.86,1
3.352,-7.49,-7.98,1
3.372,-7.49,-7.86,1
3.392,-7.25,-7.86,1
3.412,-6.88,-7.98,1
3.432,-6.88,-7.86,1
3.452,-6.88,-7.86,1
3.472,-7.12,-7.86,1
3.492,-7.12,-7.98,1
3.512,-7.25,-7.86,1
3.532,-7.37,-7.98,1
3.552,-7.37,-7.98,1
3.572,-7.49,-7.98,1
3.592,-7.49,-7.98,1
3.612,-7.49,-7.86,1
3.632,-7.49,-7.98,1
3.652,-7.49,-7.86,1
3.672,-7.49,-7.98,1
3.693,-7.49,-7.98,1
3.713,-7.49,-7.86,1
3.733,-7.49,-7.98,1
3.753,-7.49,-7.86,1
3.773,-7.49,-7.98,1
3.793,-7.49,-8.1,1
3.813,-7.49,-8.59,1
3.833,-7.49,-8.83,1
3.853,-7.49,-8.71,1
3.873,-7.49,-8.47,1
3.893,-7.49,-8.35,1
3.913,-7.49,-8.22,1
3.933,-7.49,-8.1,1
3.953,-7.49,-8.1,1
3.973,-7.61,-7.98,1
3.993,-7.49,-7.98,1
4.013,-7.61,-7.98,1
4.033,-7.49,-7.98,1
4.053,-7.61,-7.98,1
4.073,-7.61,-7.98,1
4.093,-7.61,-7.98,1
4.113,-7.61,-7.98,1
4.133,-7.49,-7.98,1
4.153,-7.61,-7.98,1
4.173,-7.61,-7.86,1
4.193,-7.49,-7.98,1
4.213,-7.49,-7.98,1
4.233,-7.61,-7.98,1
4.253,-7.49,-7.98,1
4.273,-7.61,-7.98,1
4.293,-7.61,-7.98,1
4.313,-7.61,-7.98,1
4.333,-7.49,-7.98,1
4.353,-7.61,-7.98,1
4.373,-7.61,-7.98,1
4.393,-7.61,-7.98,1
4.413,-7.61,-7.98,1
4.433,-7.61,-7.98,1
4.453,-7.61,-7.98,1
4.473,-7.61,-7.98,1
4.493,-7.61,-7.98,1
4.513,-7.49,-7.98,1
4.533,-7.61,-7.98,1
4.553,-7.61,-7.98,1
4.573,-7.61,-7.98,1
4.593,-7.61,-7.98,1
4.613,-7.61,-7.98,1
4.633,-7.61,-7.98,1
4.653,-7.49,-7.98,1
4.673,-7.37,-7.86,1
4.693,-6.76,-7.61,1
4.713,-6.15,-7.12,1
4.733,-5.54,-6.88,1
4.753,-5.29,-6.63,1
4.773,-5.17,-6.15,1
4.793,-5.05,-5.9,1
4.813,-4.8,-5.78,1
4.833,-4.68,-5.54,1
4.853,-4.56,-5.41,1
4.873,-4.44,-5.29,1
4.893,-4.44,-5.29,1
4.894,-4.31,-5.17,1
4.914,-4.44,-5.17,1
4.934,-4.44,-5.17,1
4.954,-4.31,-5.17,1
4.974,-4.19,-5.17,0
4.994,-4.19,-5.17,0
5.014,-4.07,-5.05,0
5.034,-4.07,-5.05,0
5.054,-4.07,-5.05,0
5.074,-4.19,-4.92,0
5.094,-4.19,-4.92,0
5.114,-4.19,-4.92,0
5.134,-4.07,-4.92,0
5.154,-4.19,-4.92,0
5.174,-4.19,-4.92,0
5.194,-4.07,-4.92,0
5.214,-4.07,-4.92,0
5.234,-4.19,-4.92,0
5.254,-4.19,-4.92,0
5.274,-4.07,-4.92,0
5.294,-4.07,-4.92,0
5.295,-4.07,-4.92,0
5.315,-4.07,-4.92,0
5.335,-4.07,-4.8,0
5.355,-3.95,-4.8,0
5.375,-4.07,-4.8,0
5.395,-4.19,-4.92,0
5.415,-4.19,-4.92,0
5.435,-4.07,-4.92,0
5.455,-4.19,-5.05,0
5.475,-4.07,-5.05,0
5.495,-3.95,-5.05,0
5.515,-3.95,-4.92,0
5.535,-3.95,-4.92,0
5.555,-3.95,-4.8,0
5.575,-3.95,-4.8,0
5.595,-3.95,-4.8,0
5.615,-3.95,-4.8,0
5.635,-3.95,-4.8,0
5.655,-3.95,-4.8,0
5.675,-3.95,-4.92,0
5.695,-4.07,-4.92,0
5.695,-4.68,-5.54,0
5.715,-5.78,-6.51,0
5.735,-6.51,-7,0
5.756,-6.88,-7.73,0
5.775,-7.25,-8.71,0
5.795,-7.98,-9.32,0
5.815,-8.96,-9.57,0
5.835,-9.45,-9.69,0
5.855,-9.69,-9.81,0
5.875,-9.69,-9.81,0
5.895,-9.81,-9.93,0
5.915,-9.81,-9.93,0
5.935,-9.93,-9.93,0
5.955,-9.93,-9.93,0
5.975,-9.93,-9.93,0
5.995,-9.93,-9.93,0
6.015,-10.06,-10.06,0
6.035,-9.93,-10.06,0
6.055,-10.06,-10.06,0
6.075,-10.06,-10.06,0
6.095,-10.06,-10.06,0
6.096,-10.06,-10.06,0
6.116,-10.06,-10.06,0
6.136,-10.06,-10.06,0
6.156,-10.06,-10.06,0
6.176,-10.06,-10.06,0
6.196,-10.18,-10.06,0
6.216,-10.18,-10.06,0
6.236,-10.18,-10.18,0
6.256,-10.06,-10.18,0
6.276,-10.06,-10.18,0
6.296,-10.06,-10.18,0
6.316,-10.06,-10.18,0
6.336,-10.06,-10.06,0
6.356,-10.18,-10.18,0
6.376,-10.06,-10.18,0
6.396,-10.18,-10.18,0
6.416,-10.18,-10.18,0
6.436,-10.18,-10.18,1
6.456,-10.18,-10.06,1
6.476,-10.18,-10.18,1
6.496,-10.18,-10.18,1
6.516,-10.18,-10.18,1
6.536,-10.18,-10.18,1
6.556,-10.06,-10.18,1
6.576,-10.18,-10.18,1
6.596,-10.18,-10.18,1
6.616,-10.18,-10.18,1
6.636,-10.18,-10.18,1
6.656,-10.3,-10.18,1
6.676,-10.18,-10.18,1
6.696,-10.18,-10.06,1
6.716,-9.45,-9.45,1
6.736,-8.83,-8.83,1
6.756,-8.35,-8.1,1
6.776,-7.86,-7.49,1
6.796,-7,-6.88,1
6.816,-6.39,-6.51,1
6.836,-6.02,-6.27,1
6.856,-5.66,-6.02,1
6.876,-5.29,-5.78,1
6.896,-5.05,-5.66,1
6.897,-4.92,-5.54,1
6.917,-4.8,-5.41,1
6.937,-4.68,-5.41,1
6.957,-4.56,-5.29,1
6.977,-4.68,-5.29,1
6.997,-4.68,-5.29,1
7.017,-4.44,-5.29,0
7.037,-4.44,-5.29,0
7.057,-4.31,-5.17,0
7.077,-4.19,-5.17,0
7.097,-4.19,-5.17,0
7.117,-4.19,-5.05,0
7.137,-4.31,-5.05,0
7.157,-4.31,-5.05,0
7.177,-4.19,-5.05,0
7.197,-4.19,-5.05,0
7.217,-4.31,-5.05,0
7.237,-4.19,-5.05,0
7.257,-4.07,-5.05,0
7.277,-4.07,-5.05,0
7.298,-4.19,-5.05,0
7.318,-4.31,-5.05,0
7.338,-4.19,-4.92,0
7.358,-4.19,-4.92,0
7.378,-4.19,-4.92,0
7.398,-4.07,-4.92,0
7.418,-4.07,-4.92,0
7.438,-4.07,-4.92,0
7.458,-4.19,-4.92,0
7.478,-4.19,-4.92,0
7.498,-4.19,-5.05,0
7.518,-4.19,-5.05,0
7.538,-4.19,-5.05,0
7.558,-4.07,-5.05,0
7.578,-3.95,-4.92,0
7.598,-3.95,-4.92,0
7.618,-3.95,-4.8,0
7.638,-3.95,-4.8,0
7.658,-4.07,-4.8,0
7.678,-3.82,-4.8,0
7.698,-3.95,-4.8,0
7.718,-3.82,-4.8,0
7.738,-3.95,-4.92,0
7.758,-4.07,-4.92,0
7.778,-4.8,-5.66,0
7.798,-5.9,-6.51,0
7.818,-6.51,-7.12,0
7.838,-6.88,-7.86,0
7.858,-7.25,-8.83,0
7.878,-8.1,-9.32,0
7.898,-8.96,-9.69,0
7.918,-9.45,-9.69,0
7.938,-9.57,-9.81,0
7.958,-9.69,-9.93,0
7.978,-9.81,-9.93,0
7.998,-9.81,-9.93,0
8.018,-9.93,-9.93,0
8.038,-9.93,-9.93,0
8.058,-9.93,-9.93,0
8.078,-9.93,-9.93,0
8.098,-9.93,-10.06,0
8.099,-9.93,-10.06,0
8.119,-10.06,-10.06,0
8.139,-10.06,-10.06,0
8.159,-10.06,-10.06,0
8.179,-10.06,-10.06,0
8.199,-10.06,-10.06,0
8.219,-10.06,-10.06,0
8.239,-10.06,-10.06,0
8.259,-10.06,-10.06,0
8.281,-10.06,-10.06,0
8.299,-10.18,-10.06,0
8.32,-10.06,-10.18,0
8.339,-10.06,-10.06,0
8.359,-10.06,-10.18,0
8.379,-10.06,-10.18,0
8.399,-10.06,-10.18,0
8.419,-10.18,-10.06,0
8.44,-10.18,-10.18,0
8.459,-10.18,-10.06,0
8.479,-10.18,-10.18,0
8.499,-10.18,-10.18,0
8.5,-10.18,-10.18,1
8.52,-10.18,-10.18,1
8.54,-10.18,-10.18,1
8.56,-10.18,-10.18,1
8.58,-10.18,-10.18,1
8.6,-10.18,-10.18,1
8.62,-10.18,-10.18,1
8.64,-10.18,-10.06,1
8.66,-10.18,-10.18,1
8.68,-10.18,-10.18,1
8.7,-10.3,-10.18,1
8.72,-10.3,-10.18,1
8.74,-10.18,-10.18,1
8.76,-10.06,-10.06,1
8.78,-9.45,-9.45,1
8.8,-8.83,-8.83,1
8.821,-8.35,-8.1,1
8.84,-7.86,-7.49,1
8.86,-7,-6.88,1
8.88,-6.39,-6.51,1
8.9,-6.02,-6.27,1
8.9,-5.54,-5.9,1
8.92,-5.29,-5.78,1
8.94,-5.05,-5.66,1
8.961,-4.92,-5.54,1
8.98,-4.8,-5.41,1
9,-4.68,-5.41,1
9.02,-4.68,-5.29,1
9.04,-4.68,-5.29,1
9.06,-4.68,-5.29,0
9.08,-4.44,-5.29,0
9.1,-4.44,-5.29,0
9.12,-4.31,-5.29,0
9.14,-4.19,-5.17,0
9.16,-4.19,-5.17,0
9.18,-4.31,-5.05,0
9.2,-4.31,-5.05,0
9.22,-4.44,-5.05,0
9.24,-4.19,-5.05,0
9.26,-4.31,-5.05,0
9.28,-4.31,-5.05,0
9.301,-4.19,-5.05,0
9.321,-4.07,-5.05,0
9.341,-4.19,-5.05,0
9.361,-4.31,-5.05,0
9.381,-4.31,-4.92,0
9.401,-4.19,-4.92,0
9.421,-4.19,-4.92,0
9.441,-4.07,-4.92,0
9.461,-4.07,-4.92,0
9.481,-4.07,-4.92,0
9.501,-4.07,-4.8,0
9.521,-4.19,-4.92,0
9.541,-4.19,-4.92,0
9.561,-4.07,-4.92,0
9.581,-4.07,-4.92,0
9.601,-4.07,-5.05,0
9.621,-3.95,-4.92,0
9.641,-3.82,-4.8,0
9.661,-3.95,-4.8,0
9.681,-3.95,-4.68,0
9.701,-3.95,-4.68,0
9.701,-3.82,-4.68,0
9.721,-3.82,-4.68,0
9.741,-3.82,-4.8,0
9.761,-3.95,-4.8,0
9.781,-3.95,-4.8,0
9.801,-4.44,-5.29,0
9.821,-5.66,-6.39,0
9.841,-6.51,-7,0
9.861,-7,-7.73,0
9.881,-7.25,-8.71,0
9.901,-8.1,-9.32,0
9.921,-9.08,-9.69,0
9.941,-9.57,-9.81,0
9.961,-9.69,-9.93,0
9.981,-9.81,-9.93,0
10.001,-9.93,-9.93,0
10.021,-9.93,-9.93,0
10.041,-9.93,-9.93,0
10.061,-9.93,-9.93,0
10.081,-10.06,-9.93,0
10.101,-10.06,-10.06,0
10.102,-10.06,-10.06,0
10.122,-10.06,-10.06,0
10.142,-10.06,-10.18,0
10.162,-10.06,-10.18,0
10.182,-10.06,-10.06,0
10.202,-10.06,-10.06,0
10.222,-10.06,-10.06,0
10.242,-10.06,-10.06,0
10.262,-10.06,-10.06,0
10.282,-10.18,-10.06,0
10.302,-10.18,-10.06,0
10.322,-10.06,-10.06,0
10.342,-10.06,-10.06,0
10.362,-10.06,-10.06,0
10.382,-10.06,-10.18,0
10.402,-10.06,-10.06,0
10.422,-10.18,-10.06,0
10.442,-10.06,-10.06,0
10.462,-10.18,-10.18,0
10.482,-10.18,-10.06,0
10.502,-10.18,-10.18,0
10.503,-10.18,-10.18,1
10.523,-10.18,-10.18,1
10.543,-10.18,-10.18,1
10.563,-10.18,-10.18,1
10.583,-10.18,-10.18,1
10.603,-10.18,-10.18,1
10.623,-10.18,-10.18,1
10.643,-10.18,-10.18,1
10.663,-10.18,-10.18,1
10.683,-10.3,-10.18,1
10.703,-10.3,-10.18,1
10.723,-10.3,-10.18,1
10.743,-10.06,-9.93,1
10.763,-9.32,-9.32,1
10.783,-8.71,-8.71,1
10.803,-8.35,-7.86,1
10.823,-7.61,-7.25,1
10.843,-6.76,-6.76,1
10.863,-6.27,-6.39,1
10.883,-5.78,-6.15,1
10.903,-5.41,-5.9,1
10.904,-5.17,-5.66,1
10.924,-5.05,-5.54,1
10.944,-4.8,-5.41,1
10.964,-4.68,-5.41,1
10.984,-4.68,-5.29,1
11.004,-4.68,-5.29,1
11.024,-4.68,-5.29,1
11.044,-4.44,-5.29,0
11.064,-4.31,-5.29,0
11.084,-4.31,-5.29,0
11.104,-4.19,-5.17,0
11.124,-4.19,-5.17,0
11.144,-4.19,-5.17,0
11.164,-4.31,-5.05,0
11.184,-4.31,-5.05,0
11.204,-4.19,-5.05,0
11.224,-4.19,-5.05,0
11.244,-4.31,-5.05,0
11.264,-4.19,-5.05,0
11.284,-4.07,-5.05,0
11.304,-4.19,-5.05,0
11.305,-4.31,-4.92,0
11.325,-4.19,-4.92,0
11.345,-4.07,-4.92,0
11.365,-4.19,-4.8,0
11.385,-4.19,-4.92,0
11.405,-4.19,-4.8,0
11.425,-4.07,-4.8,0
11.445,-4.31,-4.8,0
11.465,-4.19,-4.92,0
11.485,-4.19,-4.92,0
11.505,-4.19,-4.92,0
11.525,-4.19,-5.05,0
11.545,-4.07,-4.92,0
11.565,-3.95,-4.8,0
11.585,-3.95,-4.8,0
11.605,-3.95,-4.8,0
11.625,-4.07,-4.8,0
11.645,-3.95,-4.8,0
11.665,-3.95,-4.8,0
11.685,-3.95,-4.8,0
11.705,-3.95,-4.8,0
11.705,-3.95,-4.92,0
11.725,-4.44,-5.41,0
11.745,-5.66,-6.39,0
11.765,-6.39,-7,0
11.785,-6.88,-7.86,0
11.805,-7.25,-8.96,0
11.825,-8.1,-9.45,0
11.845,-8.96,-9.69,0
11.865,-9.45,-9.81,0
11.885,-9.57,-9.81,0
11.905,-9.69,-9.93,0
11.925,-9.81,-9.93,0
11.945,-9.81,-9.93,0
11.965,-9.81,-9.93,0
11.985,-9.93,-10.06,0
12.005,-9.93,-9.93,0
12.025,-10.06,-9.93,0
12.045,-10.06,-10.06,0
12.065,-10.06,-10.06,0
12.085,-10.18,-10.06,0
12.106,-10.06,-10.06,0
12.126,-10.06,-10.06,0
12.146,-10.06,-10.06,0
12.166,-10.18,-10.06,0
12.186,-10.06,-10.06,0
12.206,-10.06,-10.06,0
12.226,-10.18,-10.06,0
12.246,-10.18,-10.06,0
12.266,-10.18,-10.06,0
12.286,-10.06,-10.06,0
12.306,-10.18,-10.06,0
12.326,-10.06,-10.06,0
12.346,-10.18,-10.06,0
12.366,-10.18,-10.06,0
12.386,-10.18,-10.18,0
12.406,-10.18,-10.18,0
12.426,-10.18,-10.18,0
12.446,-10.18,-10.18,0
12.466,-10.18,-10.18,1
12.486,-10.18,-10.18,1
12.506,-10.18,-10.18,1
12.526,-10.18,-10.18,1
12.546,-10.18,-10.18,1
12.566,-10.18,-10.18,1
12.586,-10.18,-10.18,1
12.606,-10.18,-10.18,1
12.626,-10.18,-10.18,1
12.646,-10.18,-10.18,1
12.666,-10.18,-10.18,1
12.686,-10.18,-10.18,1
12.706,-9.93,-9.93,1
12.726,-9.32,-9.32,1
12.746,-8.71,-8.71,1
12.766,-8.22,-7.98,1
12.786,-7.73,-7.37,1
12.806,-6.88,-6.76,1
12.826,-6.27,-6.39,1
12.846,-5.78,-6.15,1
12.866,-5.41,-5.9,1
12.886,-5.17,-5.66,1
12.907,-5.05,-5.54,1
12.927,-4.8,-5.41,1
12.947,-4.68,-5.41,1
12.967,-4.68,-5.29,1
12.987,-4.8,-5.29,1
13.007,-4.68,-5.17,1
13.027,-4.56,-5.17,0
13.047,-4.44,-5.17,0
13.067,-4.31,-5.17,0
13.087,-4.19,-5.05,0
13.107,-4.19,-5.05,0
13.127,-4.19,-5.05,0
13.147,-4.19,-4.92,0
13.167,-4.19,-4.92,0
13.187,-4.19,-4.8,0
13.207,-4.19,-4.92,0
13.227,-4.19,-4.8,0
13.247,-3.95,-4.8,0
13.267,-3.95,-4.8,0
13.287,-4.07,-4.8,0
13.307,-4.07,-4.8,0
13.307,-3.95,-4.8,0
13.327,-3.82,-4.8,0
13.347,-3.95,-4.68,0
13.367,-3.82,-4.68,0
13.387,-3.82,-4.68,0
13.407,-3.82,-4.68,0
13.427,-3.95,-4.68,0
13.447,-3.95,-4.68,0
13.467,-3.82,-4.8,0
13.487,-3.95,-4.8,0
13.507,-3.95,-4.8,0
13.527,-3.95,-4.8,0
13.547,-3.82,-4.68,0
13.567,-3.82,-4.68,0
13.587,-3.82,-4.68,0
13.607,-3.95,-4.68,0
13.627,-3.82,-4.56,0
13.647,-3.82,-4.56,0
13.667,-3.82,-4.56,0
13.687,-3.82,-4.68,0
13.707,-3.82,-4.68,0
13.708,-4.31,-5.17,0
13.728,-5.54,-6.15,0
13.748,-6.39,-6.88,0
13.768,-6.88,-7.73,0
13.788,-7.25,-8.83,0
13.808,-8.1,-9.45,0
13.829,-9.08,-9.69,0
13.848,-9.57,-9.81,0
13.868,-9.81,-9.93,0
13.888,-9.81,-9.93,0
13.908,-9.93,-9.93,0
13.928,-9.93,-10.06,0
13.948,-9.93,-10.06,0
13.968,-10.06,-10.06,0
13.988,-10.06,-10.06,0
14.008,-10.06,-10.06,0
14.028,-10.06,-10.18,0
14.048,-10.06,-10.18,0
14.068,-10.06,-10.18,0
14.088,-10.06,-10.18,0
14.108,-10.06,-10.18,0
14.128,-10.18,-10.18,0
14.148,-10.18,-10.18,0
14.168,-10.06,-10.18,0
14.188,-10.18,-10.18,0
14.208,-10.18,-10.18,0
14.228,-10.18,-10.18,0
14.248,-10.18,-10.18,0
14.268,-10.18,-10.3,0
14.288,-10.18,-10.3,0
14.308,-10.18,-10.3,0
14.328,-10.18,-10.3,0
14.348,-10.3,-10.3,0
14.368,-10.3,-10.3,0
14.388,-10.18,-10.3,0
14.408,-10.3,-10.3,0
14.428,-10.3,-10.3,0
14.448,-10.3,-10.3,1
14.468,-10.18,-10.3,1
14.488,-10.3,-10.3,1
14.509,-10.18,-10.3,1
14.529,-10.18,-10.3,1
14.549,-10.3,-10.3,1
14.569,-10.3,-10.3,1
14.589,-10.3,-10.3,1
14.609,-10.3,-10.3,1
14.629,-10.3,-10.3,1
14.649,-10.3,-10.3,1
14.669,-10.3,-10.3,1
14.689,-9.93,-9.93,1
14.709,-9.32,-9.32,1
14.729,-8.71,-8.59,1
14.749,-8.22,-7.86,1
14.769,-7.49,-7.25,1
14.789,-6.76,-6.63,1
14.809,-6.02,-6.39,1
14.829,-5.66,-6.02,1
14.849,-5.29,-5.78,1
14.869,-5.05,-5.66,1
14.889,-4.92,-5.41,1
14.909,-4.68,-5.29,1
14.91,-4.56,-5.29,1
14.93,-4.56,-5.17,1
14.95,-4.68,-5.17,1
14.97,-4.56,-5.17,0
14.99,-4.31,-5.05,0
15.01,-4.31,-5.05,0
15.03,-4.07,-5.05,0
15.05,-4.07,-4.92,0
15.07,-4.07,-4.92,0
15.09,-4.19,-4.92,0
15.11,-4.19,-4.92,0
15.13,-4.07,-4.8,0
15.15,-4.07,-4.8,0
15.17,-4.19,-4.8,0
15.19,-4.07,-4.8,0
15.21,-3.95,-4.8,0
15.23,-4.07,-4.92,0
15.25,-4.07,-4.8,0
15.27,-4.07,-4.8,0
15.29,-3.95,-4.8,0
15.31,-3.95,-4.8,0
15.311,-3.95,-4.8,0
15.331,-3.95,-4.68,0
15.351,-3.82,-4.8,0
15.371,-3.95,-4.8,0
15.391,-4.07,-4.8,0
15.411,-3.95,-4.68,0
15.431,-3.95,-4.8,0
15.451,-3.95,-4.92,0
15.471,-3.95,-4.8,0
15.491,-3.82,-4.8,0
15.511,-3.7,-4.8,0
15.531,-3.7,-4.68,0
15.551,-3.7,-4.68,0
15.571,-3.82,-4.56,0
15.591,-3.7,-4.56,0
15.611,-3.7,-4.56,0
15.631,-3.7,-4.56,0
15.651,-3.7,-4.68,0
15.671,-3.82,-4.68,0
15.691,-4.56,-5.41,0
15.711,-5.78,-6.39,0
15.731,-6.51,-7,0
15.751,-6.88,-7.98,0
15.771,-7.49,-8.96,0
15.791,-8.47,-9.45,0
15.811,-9.2,-9.69,0
15.831,-9.57,-9.81,0
15.851,-9.81,-9.81,0
15.871,-9.81,-9.81,0
15.891,-9.93,-9.93,0
15.911,-10.06,-9.93,0
15.931,-10.06,-10.06,0
15.951,-10.06,-10.06,0
15.971,-10.18,-10.06,0
15.991,-10.06,-10.06,0
16.011,-10.06,-10.18,0
16.031,-10.18,-10.18,0
16.051,-10.18,-10.18,0
16.071,-10.18,-10.18,0
16.091,-10.18,-10.18,0
16.111,-10.18,-10.18,0
16.131,-10.06,-10.18,0
16.151,-10.06,-10.18,0
16.171,-10.18,-10.18,0
16.191,-10.18,-10.18,0
16.211,-10.18,-10.18,0
16.231,-10.06,-10.18,0
16.251,-10.18,-10.18,0
16.271,-10.06,-10.18,0
16.291,-10.18,-10.18,0
16.311,-10.18,-10.3,0
16.331,-10.18,-10.18,0
16.351,-10.18,-10.18,0
16.371,-10.18,-10.18,0
16.391,-10.18,-10.18,0
16.411,-10.18,-10.3,1
16.431,-10.18,-10.18,1
16.451,-10.18,-10.3,1
16.471,-10.18,-10.3,1
16.491,-10.18,-10.3,1
16.512,-10.18,-10.3,1
16.532,-10.18,-10.3,1
16.552,-10.3,-10.3,1
16.572,-10.18,-10.3,1
16.592,-10.3,-10.3,1
16.612,-10.3,-10.3,1
16.632,-10.3,-10.3,1
16.652,-10.3,-10.3,1
16.672,-9.69,-9.69,1
16.692,-9.08,-9.08,1
16.712,-8.59,-8.35,1
16.732,-8.1,-7.61,1
16.752,-7.25,-7,1
16.772,-6.51,-6.51,1
16.792,-6.02,-6.27,1
16.812,-5.66,-6.02,1
16.832,-5.29,-5.78,1
16.852,-5.05,-5.54,1
16.872,-4.92,-5.41,1
16.892,-4.68,-5.29,1
16.912,-4.56,-5.29,1
16.912,-4.56,-5.17,1
16.932,-4.56,-5.17,1
16.953,-4.44,-5.17,0
16.972,-4.31,-5.17,0
16.992,-4.19,-5.17,0
17.012,-4.07,-5.05,0
17.032,-3.95,-5.05,0
17.052,-4.07,-4.92,0
17.072,-4.07,-4.92,0
17.092,-4.07,-4.92,0
17.112,-4.07,-4.92,0
17.132,-4.07,-4.92,0
17.152,-4.07,-4.92,0
17.172,-4.07,-4.92,0
17.192,-3.95,-4.92,0
17.212,-3.95,-4.92,0
17.232,-4.07,-4.92,0
17.252,-4.19,-4.92,0
17.272,-3.95,-4.8,0
17.292,-4.07,-4.8,0
17.313,-3.95,-4.8,0
17.333,-3.95,-4.8,0
17.353,-3.95,-4.8,0
17.373,-4.07,-4.8,0
17.393,-4.07,-4.8,0
17.413,-4.07,-4.8,0
17.433,-4.07,-4.8,0
17.453,-4.07,-4.92,0
17.473,-4.07,-4.8,0
17.493,-3.95,-4.8,0
17.513,-3.82,-4.68,0
17.533,-3.82,-4.68,0
17.553,-3.95,-4.56,0
17.573,-3.95,-4.56,0
17.593,-3.82,-4.56,0
17.613,-3.82,-4.56,0
17.633,-3.7,-4.56,0
17.653,-3.82,-4.68,0
17.673,-3.82,-4.68,0
17.693,-4.92,-5.78,0
17.713,-6.02,-6.63,0
17.713,-6.63,-7.25,0
17.733,-7,-8.35,0
17.753,-7.61,-9.2,0
17.773,-8.59,-9.57,0
17.793,-9.2,-9.69,0
17.813,-9.57,-9.81,0
17.833,-9.69,-9.93,0
17.853,-9.81,-10.06,0
17.873,-9.93,-10.06,0
17.893,-9.93,-10.06,0
17.913,-9.93,-10.06,0
17.933,-9.93,-10.06,0
17.953,-10.06,-10.06,0
17.973,-10.06,-10.18,0
17.993,-10.06,-10.18,0
18.013,-10.18,-10.18,0
18.033,-10.18,-10.18,0
18.053,-10.18,-10.18,0
18.073,-10.18,-10.18,0
18.093,-10.18,-10.18,0
18.114,-10.18,-10.18,0
18.134,-10.18,-10.18,0
18.154,-10.18,-10.18,0
18.174,-10.18,-10.18,0
18.194,-10.18,-10.18,0
18.214,-10.18,-10.18,0
18.234,-10.18,-10.18,0
18.254,-10.18,-10.18,0
18.274,-10.18,-10.18,0
18.294,-10.18,-10.18,0
18.314,-10.18,-10.18,0
18.334,-10.18,-10.18,0
18.354,-10.18,-10.18,0
18.374,-10.3,-10.18,0
18.394,-10.18,-10.18,1
18.414,-10.18,-10.18,1
18.434,-10.18,-10.18,1
18.454,-10.18,-10.3,1
18.474,-10.18,-10.18,1
18.494,-10.18,-10.18,1
18.514,-10.3,-10.18,1
18.534,-10.18,-10.18,1
18.554,-10.3,-10.18,1
18.574,-10.3,-10.3,1
18.594,-10.3,-10.3,1
18.614,-10.3,-10.3,1
18.634,-10.18,-10.18,1
18.654,-9.45,-9.45,1
18.674,-8.83,-8.96,1
18.694,-8.47,-8.1,1
18.714,-7.86,-7.37,1
18.734,-7,-6.88,1
18.754,-6.39,-6.51,1
18.774,-5.9,-6.15,1
18.794,-5.41,-5.9,1
18.814,-5.17,-5.66,1
18.834,-5.05,-5.54,1
18.854,-4.8,-5.41,1
18.874,-4.68,-5.41,1
18.894,-4.68,-5.29,1
18.914,-4.68,-5.17,1
18.934,-4.56,-5.29,1
