Time (s),Pressure 1 (kPa),Pressure 2 (kPa),Switch State
0.085,-7.61,-7.86,1
0.105,-7.61,-7.86,1
0.125,-7.61,-7.86,1
0.145,-7.61,-7.86,1
0.165,-7.61,-7.86,1
0.185,-7.61,-7.86,1
0.205,-7.61,-7.86,1
0.225,-7.61,-7.86,1
0.245,-7.49,-7.86,1
0.265,-7.61,-7.86,1
0.285,-7.61,-7.86,1
0.305,-7.61,-7.86,1
0.325,-7.49,-7.86,1
0.345,-7.61,-7.86,1
0.365,-7.61,-7.86,1
0.385,-7.61,-7.86,1
0.405,-7.61,-7.86,1
0.425,-7.61,-7.86,1
0.445,-7.49,-7.86,1
0.465,-7.61,-7.86,1
0.485,-7.61,-7.86,1
0.505,-7.49,-7.86,1
0.525,-7.61,-7.86,1
0.545,-7.49,-7.86,1
0.565,-7.49,-7.98,1
0.585,-7.49,-7.86,1
0.605,-7.49,-7.86,1
0.625,-7.49,-7.86,1
0.645,-7.49,-7.86,1
0.665,-7.49,-7.86,1
0.685,-7.61,-7.86,1
0.705,-7.49,-7.86,1
0.725,-7.49,-7.86,1
0.745,-7.49,-7.86,1
0.765,-7.61,-7.86,1
0.785,-7.61,-7.86,1
0.805,-7.61,-7.86,1
0.825,-7.61,-7.86,1
0.845,-7.61,-7.86,1
0.865,-7.49,-7.86,1
0.886,-7.49,-7.86,1
0.906,-7.49,-7.86,1
0.926,-7.49,-7.86,1
0.946,-7.49,-7.86,1
0.966,-7.49,-7.98,1
0.986,-7.49,-7.86,1
1.006,-7.49,-7.98,1
1.026,-7.49,-7.86,1
1.046,-7.49,-7.86,1
1.066,-7.49,-7.98,1
1.086,-7.61,-7.86,1
1.106,-7.49,-7.86,1
1.126,-7.49,-7.86,1
1.146,-7.61,-7.86,1
1.166,-7.61,-7.86,1
1.186,-7.49,-7.86,1
1.206,-7.49,-7.86,1
1.226,-7.61,-7.86,1
1.246,-7.49,-7.86,1
1.266,-7.61,-7.86,1
1.286,-7.61,-7.86,1
1.286,-7.49,-7.86,1
1.306,-7.49,-7.86,1
1.326,-7.49,-7.86,1
1.346,-7.61,-7.86,1
1.366,-7.61,-7.86,1
1.386,-7.61,-7.98,1
1.406,-7.61,-7.86,1
1.426,-7.61,-7.86,1
1.446,-7.61,-7.98,1
1.466,-7.61,-7.86,1
1.487,-7.49,-7.98,1
1.506,-7.61,-7.86,1
1.526,-7.49,-7.98,1
1.546,-7.61,-7.86,1
1.566,-7.61,-7.86,1
1.586,-7.61,-7.86,1
1.606,-7.61,-7.86,1
1.626,-7.49,-7.86,1
1.646,-7.49,-7.86,1
1.666,-7.61,-7.86,1
1.686,-7.49,-7.86,1
1.687,-7.61,-7.86,1
1.707,-7.49,-7.86,1
1.728,-7.61,-7.86,1
1.747,-7.61,-7.98,1
1.767,-7.49,-7.86,1
1.787,-7.61,-7.86,1
1.807,-7.61,-7.86,1
1.827,-7.61,-7.86,1
1.847,-7.61,-7.98,1
1.867,-7.61,-7.86,1
1.887,-7.49,-7.86,1
1.907,-7.49,-7.86,1
1.927,-7.49,-7.86,1
1.947,-7.61,-7.86,1
1.967,-7.61,-7.86,1
1.987,-7.61,-7.98,1
2.007,-7.61,-7.86,1
2.027,-7.61,-7.86,1
2.047,-7.61,-7.86,1
2.067,-7.61,-7.98,1
2.087,-7.61,-7.86,1
2.088,-7.61,-7.86,1
2.108,-7.61,-7.86,1
2.128,-7.49,-7.86,1
2.148,-7.61,-7.86,1
2.168,-7.49,-7.86,1
2.188,-7.61,-7.86,1
2.208,-7.61,-7.86,1
2.228,-7.49,-7.86,1
2.248,-7.49,-7.86,1
2.268,-7.61,-7.86,1
2.288,-7.61,-7.86,1
2.308,-7.61,-7.86,1
2.328,-7.61,-7.98,1
2.348,-7.61,-7.86,1
2.368,-7.61,-7.98,1
2.388,-7.61,-7.86,1
2.408,-7.49,-7.86,1
2.428,-7.61,-7.86,1
2.448,-7.61,-7.86,1
2.468,-7.61,-7.86,1
2.488,-7.61,-7.98,1
2.508,-7.61,-7.86,1
2.528,-7.61,-7.86,1
2.548,-7.61,-7.86,1
2.569,-7.61,-7.86,1
2.588,-7.61,-7.86,1
2.608,-7.61,-7.86,1
2.628,-7.61,-7.86,1
2.648,-7.49,-7.86,1
2.668,-7.49,-7.86,1
2.688,-7.61,-7.86,1
2.708,-7.49,-7.86,1
2.728,-7.49,-7.86,1
2.748,-7.61,-7.86,1
2.768,-7.61,-7.86,1
2.788,-7.61,-7.98,1
2.808,-7.61,-7.86,1
2.828,-7.49,-7.98,1
2.848,-7.61,-7.86,1
2.868,-7.61,-7.86,1
2.889,-7.49,-7.86,1
2.909,-7.61,-7.86,1
2.929,-7.61,-7.86,1
2.949,-7.61,-7.86,1
2.969,-7.61,-7.86,1
2.989,-7.49,-7.86,1
3.009,-7.61,-7.98,1
3.029,-7.61,-7.86,1
3.049,-7.61,-7.86,1
3.069,-7.61,-7.86,1
3.089,-7.61,-7.86,1
3.109,-7.61,-7.86,1
3.129,-7.49,-7.86,1
3.149,-7.61,-7.86,1
3.169,-7.61,-7.86,1
3.189,-7.49,-7.86,1
3.209,-7.49,-7.86,1
3.229,-7.61,-7.86,1
3.249,-7.61,-7.86,1
3.269,-7.49,-7.86,1
3.289,-7.49,-7.86,1
3.309,-7.25,-7.98,1
3.329,-6.88,-7.98,1
3.349,-6.76,-7.86,1
3.369,-6.88,-7.86,1
3.389,-7.0,-7.98,1
3.409,-7.12,-7.86,1
3.429,-7.25,-7.86,1
3.449,-7.37,-7.86,1
3.469,-7.37,-7.86,1
3.489,-7.37,-7.86,1
3.509,-7.37,-7.86,1
3.529,-7.49,-7.86,1
3.549,-7.49,-7.86,1
3.569,-7.49,-7.86,1
3.589,-7.49,-7.86,1
3.609,-7.49,-7.86,1
3.629,-7.49,-7.86,1
3.649,-7.49,-7.98,1
3.669,-7.49,-7.86,1
3.69,-7.49,-7.98,1
3.71,-7.49,-8.35,1
3.73,-7.49,-8.71,1
3.75,-7.49,-8.83,1
3.77,-7.49,-8.71,1
3.79,-7.49,-8.47,1
3.81,-7.49,-8.35,1
3.83,-7.49,-8.22,1
3.85,-7.49,-8.1,1
3.87,-7.49,-8.1,1
3.89,-7.49,-7.98,1
3.91,-7.49,-7.98,1
3.93,-7.49,-7.98,1
3.95,-7.49,-7.98,1
3.97,-7.49,-7.98,1
3.99,-7.49,-7.98,1
4.01,-7.49,-7.98,1
4.03,-7.49,-7.86,1
4.05,-7.49,-7.98,1
4.07,-7.49,-7.98,1
4.09,-7.49,-7.86,1
4.09,-7.49,-7.98,1
4.11,-7.49,-7.98,1
4.13,-7.49,-7.86,1
4.15,-7.49,-7.98,1
4.17,-7.49,-7.86,1
4.19,-7.49,-7.86,1
4.21,-7.49,-7.98,1
4.23,-7.61,-7.98,1
4.25,-7.49,-7.86,1
4.27,-7.49,-7.98,1
4.29,-7.49,-7.86,1
4.31,-7.61,-7.98,1
4.33,-7.49,-7.98,1
4.35,-7.49,-7.98,1
4.37,-7.49,-7.86,1
4.39,-7.49,-7.98,1
4.41,-7.49,-7.98,1
4.43,-7.49,-7.98,1
4.45,-7.49,-7.86,1
4.47,-7.49,-7.86,1
4.49,-7.49,-7.98,1
4.491,-7.49,-7.86,1
4.511,-7.49,-7.86,1
4.531,-7.49,-7.86,1
4.551,-7.0,-7.86,1
4.571,-6.39,-7.49,1
4.591,-5.9,-6.88,1
4.611,-5.54,-6.51,1
4.631,-5.17,-6.27,1
4.651,-4.92,-6.02,1
4.671,-4.92,-5.78,1
4.691,-4.8,-5.54,1
4.711,-4.56,-5.54,1
4.731,-4.44,-5.29,1
4.751,-4.44,-5.29,1
4.771,-4.44,-5.17,1
4.791,-4.31,-5.05,1
4.811,-4.31,-5.05,1
4.831,-4.44,-5.05,1
4.851,-4.44,-5.05,1
4.871,-4.31,-5.05,0
4.891,-4.07,-5.05,0
4.911,-4.07,-5.05,0
4.931,-4.07,-5.05,0
4.951,-4.07,-4.92,0
4.971,-4.07,-4.92,0
4.991,-4.19,-4.92,0
5.011,-4.31,-4.8,0
5.031,-4.19,-4.8,0
5.051,-4.07,-4.8,0
5.071,-4.07,-4.8,0
5.091,-4.07,-4.8,0
5.111,-4.07,-4.92,0
5.131,-4.07,-4.92,0
5.151,-4.19,-4.8,0
5.171,-4.07,-4.92,0
5.191,-4.07,-4.8,0
5.211,-4.07,-4.8,0
5.231,-4.07,-4.8,0
5.251,-4.07,-4.8,0
5.271,-4.07,-4.8,0
5.292,-4.07,-4.8,0
5.312,-4.07,-4.8,0
5.332,-4.07,-4.8,0
5.352,-4.19,-4.8,0
5.372,-4.07,-4.8,0
5.392,-4.07,-4.92,0
5.412,-4.07,-4.8,0
5.432,-3.95,-4.8,0
5.452,-3.95,-4.68,0
5.472,-3.95,-4.68,0
5.492,-3.82,-4.68,0
5.512,-3.82,-4.68,0
5.532,-3.82,-4.68,0
5.552,-3.82,-4.68,0
5.572,-3.82,-4.68,0
5.592,-3.82,-4.68,0
5.612,-4.07,-4.8,0
5.632,-5.17,-5.9,0
5.652,-6.15,-6.63,0
5.672,-6.63,-7.25,0
5.692,-7.0,-8.47,0
5.692,-7.61,-9.08,0
5.712,-8.71,-9.45,0
5.732,-9.2,-9.57,0
5.752,-9.45,-9.81,0
5.772,-9.57,-9.81,0
5.792,-9.69,-9.93,0
5.812,-9.81,-9.93,0
5.832,-9.81,-9.93,0
5.852,-9.81,-9.93,0
5.872,-9.93,-9.93,0
5.892,-9.93,-10.06,0
5.912,-9.93,-10.06,0
5.932,-9.93,-10.06,0
5.952,-10.06,-10.06,0
5.972,-9.93,-10.18,0
5.992,-10.06,-10.06,0
6.012,-10.06,-10.06,0
6.032,-10.06,-10.18,0
6.052,-10.06,-10.18,0
6.072,-10.06,-10.06,0
6.093,-10.06,-10.06,0
6.113,-10.06,-10.06,0
6.133,-10.06,-10.18,0
6.153,-10.06,-10.18,0
6.173,-10.06,-10.18,0
6.193,-10.06,-10.18,0
6.213,-10.06,-10.18,0
6.233,-10.06,-10.18,0
6.253,-10.18,-10.18,0
6.273,-10.06,-10.18,0
6.293,-10.18,-10.18,0
6.313,-10.18,-10.18,0
6.333,-10.18,-10.18,0
6.353,-10.18,-10.18,1
6.373,-10.18,-10.18,1
6.393,-10.18,-10.18,1
6.413,-10.18,-10.18,1
6.433,-10.18,-10.18,1
6.453,-10.18,-10.18,1
6.473,-10.18,-10.18,1
6.493,-10.18,-10.18,1
6.513,-10.18,-10.18,1
6.533,-10.18,-10.3,1
6.553,-10.18,-10.3,1
6.573,-10.18,-10.3,1
6.593,-10.18,-10.3,1
6.613,-10.18,-10.3,1
6.633,-9.81,-9.81,1
6.653,-9.2,-9.32,1
6.673,-8.59,-8.71,1
6.693,-8.22,-7.73,1
6.713,-7.61,-7.12,1
6.733,-6.76,-6.76,1
6.753,-6.02,-6.27,1
6.773,-5.78,-6.15,1
6.793,-5.54,-5.9,1
6.813,-5.29,-5.78,1
6.833,-5.05,-5.54,1
6.853,-4.8,-5.41,1
6.873,-4.68,-5.41,1
6.893,-4.68,-5.29,1
6.894,-4.56,-5.17,1
6.914,-4.44,-5.17,1
6.934,-4.56,-5.17,1
6.954,-4.56,-5.17,0
6.974,-4.44,-5.17,0
6.994,-4.31,-5.17,0
7.014,-4.19,-5.05,0
7.034,-4.19,-5.05,0
7.054,-4.19,-4.92,0
7.074,-4.19,-4.92,0
7.094,-4.31,-4.8,0
7.114,-4.44,-4.92,0
7.134,-4.31,-4.8,0
7.154,-4.19,-4.92,0
7.174,-4.07,-4.8,0
7.194,-4.07,-4.8,0
7.214,-4.07,-4.92,0
7.234,-4.07,-4.92,0
7.254,-4.19,-4.92,0
7.274,-4.19,-4.92,0
7.294,-4.31,-4.8,0
7.294,-4.07,-4.8,0
7.314,-4.07,-4.8,0
7.334,-4.07,-4.8,0
7.354,-4.07,-4.8,0
7.374,-4.07,-4.8,0
7.394,-4.19,-4.8,0
7.414,-4.31,-4.8,0
7.434,-4.19,-4.8,0
7.454,-4.07,-4.92,0
7.474,-4.07,-4.92,0
7.494,-3.95,-4.8,0
7.514,-3.95,-4.8,0
7.534,-3.95,-4.68,0
7.554,-3.95,-4.68,0
7.574,-3.95,-4.68,0
7.594,-3.82,-4.68,0
7.614,-3.82,-4.68,0
7.634,-3.82,-4.68,0
7.654,-3.95,-4.68,0
7.674,-4.19,-4.8,0
7.695,-5.29,-5.9,0
7.715,-6.15,-6.63,0
7.735,-6.63,-7.25,0
7.755,-7.0,-8.47,0
7.775,-7.61,-9.08,0
7.795,-8.71,-9.45,0
7.815,-9.2,-9.69,0
7.835,-9.45,-9.81,0
7.855,-9.57,-9.81,0
7.875,-9.69,-9.93,0
7.895,-9.69,-9.93,0
7.915,-9.81,-9.93,0
7.935,-9.81,-9.93,0
7.955,-9.93,-9.93,0
7.975,-9.93,-10.06,0
7.995,-9.93,-10.06,0
8.015,-9.93,-10.06,0
8.035,-10.06,-10.06,0
8.055,-10.06,-10.18,0
8.075,-10.06,-10.06,0
8.095,-10.06,-10.18,0
8.115,-10.06,-10.18,0
8.135,-10.06,-10.06,0
8.155,-10.06,-10.06,0
8.175,-10.06,-10.18,0
8.195,-10.06,-10.18,0
8.215,-10.06,-10.18,0
8.235,-10.06,-10.18,0
8.255,-10.06,-10.18,0
8.275,-10.06,-10.18,0
8.295,-10.06,-10.18,0
8.315,-10.06,-10.18,0
8.335,-10.06,-10.18,0
8.355,-10.18,-10.18,0
8.375,-10.18,-10.18,0
8.395,-10.06,-10.18,0
8.415,-10.18,-10.18,0
8.435,-10.18,-10.18,1
8.455,-10.18,-10.18,1
8.475,-10.18,-10.18,1
8.496,-10.18,-10.18,1
8.516,-10.18,-10.18,1
8.536,-10.18,-10.18,1
8.556,-10.18,-10.18,1
8.576,-10.06,-10.18,1
8.596,-10.06,-10.18,1
8.616,-10.18,-10.18,1
8.636,-10.18,-10.3,1
8.656,-10.18,-10.3,1
8.676,-10.18,-10.18,1
8.696,-10.18,-10.3,1
8.716,-9.69,-9.81,1
8.736,-9.08,-9.2,1
8.756,-8.59,-8.59,1
8.776,-8.22,-7.61,1
8.796,-7.49,-7.12,1
8.816,-6.63,-6.63,1
8.836,-6.02,-6.39,1
8.856,-5.66,-6.02,1
8.876,-5.41,-5.9,1
8.896,-5.29,-5.78,1
8.896,-5.05,-5.54,1
8.916,-4.92,-5.41,1
8.936,-4.68,-5.41,1
8.956,-4.68,-5.29,1
8.976,-4.56,-5.17,1
8.996,-4.44,-5.17,1
9.016,-4.44,-5.17,1
9.036,-4.56,-5.17,0
9.056,-4.56,-5.17,0
9.076,-4.31,-5.17,0
9.096,-4.19,-5.05,0
9.116,-4.19,-5.05,0
9.136,-4.19,-5.05,0
9.156,-4.19,-4.92,0
9.176,-4.31,-4.92,0
9.196,-4.44,-4.92,0
9.216,-4.44,-4.92,0
9.236,-4.31,-4.92,0
9.256,-4.19,-4.92,0
9.276,-4.07,-4.92,0
9.296,-4.07,-4.92,0
9.297,-4.07,-4.92,0
9.317,-4.07,-4.92,0
9.337,-4.19,-4.92,0
9.357,-4.19,-4.8,0
9.377,-4.07,-4.8,0
9.397,-4.07,-4.8,0
9.417,-4.07,-4.8,0
9.437,-4.07,-4.8,0
9.457,-4.07,-4.8,0
9.477,-4.07,-4.8,0
9.497,-4.19,-4.8,0
9.517,-4.31,-4.8,0
9.537,-4.19,-4.92,0
9.557,-4.07,-4.92,0
9.577,-4.07,-4.8,0
9.597,-4.07,-4.8,0
9.617,-4.07,-4.68,0
9.637,-4.07,-4.68,0
9.657,-3.95,-4.68,0
9.677,-3.95,-4.68,0
9.697,-3.95,-4.68,0
9.717,-4.07,-4.68,0
9.737,-4.07,-4.68,0
9.757,-5.05,-5.54,0
9.777,-6.02,-6.51,0
9.797,-6.76,-7.12,0
9.817,-7.0,-8.22,0
9.837,-7.61,-9.08,0
9.857,-8.71,-9.32,0
9.877,-9.32,-9.57,0
9.897,-9.57,-9.69,0
9.917,-9.69,-9.81,0
9.937,-9.69,-9.81,0
9.957,-9.81,-9.81,0
9.977,-9.81,-9.93,0
9.997,-9.81,-9.93,0
10.017,-9.69,-9.93,0
10.037,-9.81,-9.93,0
10.057,-9.93,-10.06,0
10.077,-9.93,-10.06,0
10.097,-10.06,-10.06,0
10.098,-9.93,-10.06,0
10.118,-9.93,-10.06,0
10.138,-9.93,-10.06,0
10.158,-9.93,-10.06,0
10.178,-10.06,-10.06,0
10.198,-10.06,-10.06,0
10.218,-10.06,-10.06,0
10.238,-10.06,-10.06,0
10.258,-10.06,-10.18,0
10.278,-10.06,-10.18,0
10.298,-10.06,-10.18,0
10.318,-10.06,-10.18,0
10.338,-10.06,-10.18,0
10.358,-10.06,-10.18,0
10.378,-10.06,-10.18,0
10.398,-10.18,-10.18,0
10.418,-10.06,-10.18,0
10.438,-10.18,-10.18,0
10.458,-10.18,-10.18,1
10.478,-10.18,-10.18,1
10.499,-10.18,-10.18,1
10.519,-10.18,-10.18,1
10.539,-10.18,-10.18,1
10.559,-10.18,-10.18,1
10.579,-10.06,-10.18,1
10.599,-10.18,-10.18,1
10.619,-10.18,-10.18,1
10.639,-10.18,-10.18,1
10.659,-10.18,-10.18,1
10.679,-10.18,-10.3,1
10.699,-10.18,-10.3,1
10.719,-9.81,-9.93,1
10.739,-9.2,-9.32,1
10.759,-8.59,-8.71,1
10.779,-8.22,-7.73,1
10.799,-7.61,-7.12,1
10.819,-6.63,-6.63,1
10.839,-6.02,-6.27,1
10.859,-5.54,-6.02,1
10.879,-5.29,-5.78,1
10.899,-5.17,-5.66,1
10.919,-5.05,-5.54,1
10.939,-4.92,-5.41,1
10.959,-4.68,-5.29,1
10.979,-4.56,-5.29,1
10.999,-4.44,-5.17,1
11.019,-4.44,-5.17,1
11.039,-4.44,-5.17,0
11.059,-4.56,-5.17,0
11.079,-4.56,-5.17,0
11.099,-4.31,-5.05,0
11.119,-4.19,-5.05,0
11.139,-4.19,-5.05,0
11.159,-4.19,-4.92,0
11.179,-4.19,-4.92,0
11.199,-4.31,-4.92,0
11.219,-4.44,-4.92,0
11.239,-4.44,-4.92,0
11.259,-4.19,-4.92,0
11.279,-4.07,-4.92,0
11.3,-4.07,-4.92,0
11.32,-4.07,-4.92,0
11.34,-4.07,-4.92,0
11.36,-4.07,-4.92,0
11.38,-4.31,-4.8,0
11.4,-4.07,-4.8,0
11.42,-4.07,-4.8,0
11.44,-4.07,-4.8,0
11.46,-3.95,-4.8,0
11.48,-4.07,-4.8,0
11.5,-4.07,-4.8,0
11.52,-4.19,-4.8,0
11.54,-4.31,-4.8,0
11.56,-4.07,-4.8,0
11.58,-3.95,-4.8,0
11.6,-3.95,-4.68,0
11.62,-3.82,-4.68,0
11.64,-3.82,-4.68,0
11.66,-3.82,-4.68,0
11.68,-3.82,-4.56,0
11.7,-3.82,-4.56,0
11.7,-3.82,-4.56,0
11.72,-3.95,-4.56,0
11.74,-4.44,-5.17,0
11.76,-5.66,-6.27,0
11.78,-6.51,-6.88,0
11.8,-7.0,-7.86,0
11.82,-7.37,-8.83,0
11.84,-8.35,-9.32,0
11.86,-9.08,-9.57,0
11.88,-9.45,-9.81,0
11.9,-9.69,-9.81,0
11.92,-9.81,-9.81,0
11.94,-9.81,-9.93,0
11.96,-9.81,-9.93,0
11.98,-9.81,-9.93,0
12.0,-9.81,-10.06,0
12.02,-9.93,-10.06,0
12.04,-10.06,-10.06,0
12.06,-10.06,-10.06,0
12.08,-10.06,-10.06,0
12.1,-10.06,-10.18,0
12.101,-10.06,-10.06,0
12.121,-10.06,-10.06,0
12.141,-10.06,-10.18,0
12.161,-10.06,-10.18,0
12.181,-10.06,-10.06,0
12.201,-10.06,-10.06,0
12.221,-10.06,-10.18,0
12.241,-10.06,-10.18,0
12.261,-10.06,-10.18,0
12.281,-10.06,-10.18,0
12.301,-10.06,-10.18,0
12.321,-10.06,-10.18,0
12.341,-10.06,-10.18,0
12.361,-10.06,-10.18,0
12.381,-10.06,-10.18,0
12.401,-10.06,-10.18,0
12.421,-10.06,-10.18,0
12.441,-10.18,-10.18,1
12.461,-10.18,-10.18,1
12.481,-10.18,-10.18,1
12.501,-10.18,-10.18,1
12.502,-10.18,-10.18,1
12.522,-10.18,-10.18,1
12.542,-10.18,-10.18,1
12.562,-10.18,-10.18,1
12.582,-10.18,-10.18,1
12.602,-10.18,-10.18,1
12.622,-10.18,-10.18,1
12.642,-10.18,-10.18,1
12.662,-10.18,-10.3,1
12.682,-9.81,-9.81,1
12.702,-9.2,-9.32,1
12.722,-8.59,-8.71,1
12.742,-8.22,-7.73,1
12.762,-7.61,-7.12,1
12.782,-6.76,-6.63,1
12.802,-6.02,-6.27,1
12.822,-5.54,-6.02,1
12.842,-5.29,-5.9,1
12.862,-5.17,-5.66,1
12.882,-5.17,-5.54,1
12.902,-4.8,-5.41,1
12.902,-4.68,-5.29,1
12.922,-4.56,-5.29,1
12.942,-4.44,-5.17,1
12.962,-4.31,-5.17,1
12.982,-4.31,-5.17,0
13.002,-4.44,-5.17,0
13.022,-4.44,-5.17,0
13.042,-4.19,-5.05,0
13.062,-4.19,-5.05,0
13.082,-4.19,-4.92,0
13.102,-4.07,-4.92,0
13.122,-4.07,-4.92,0
13.142,-4.07,-4.92,0
13.162,-4.19,-4.92,0
13.182,-4.31,-4.92,0
13.202,-4.07,-4.92,0
13.222,-4.19,-4.92,0
13.242,-4.07,-4.92,0
13.262,-3.95,-4.8,0
13.282,-3.95,-4.8,0
13.302,-4.07,-4.8,0
13.303,-4.19,-4.8,0
13.323,-4.19,-4.8,0
13.343,-4.07,-4.68,0
13.363,-4.19,-4.68,0
13.383,-3.95,-4.68,0
13.403,-4.07,-4.68,0
13.423,-4.07,-4.68,0
13.443,-4.07,-4.8,0
13.463,-4.31,-4.92,0
13.483,-4.19,-4.8,0
13.503,-4.07,-4.68,0
13.523,-3.95,-4.68,0
13.543,-3.95,-4.68,0
13.563,-3.82,-4.56,0
13.583,-3.82,-4.56,0
13.603,-3.82,-4.68,0
13.623,-3.95,-4.68,0
13.643,-3.95,-4.68,0
13.663,-3.95,-4.68,0
13.683,-4.56,-5.29,0
13.703,-5.78,-6.27,0
13.723,-6.51,-7.0,0
13.743,-6.88,-7.98,0
13.763,-7.25,-8.96,0
13.783,-8.22,-9.45,0
13.803,-9.08,-9.57,0
13.823,-9.32,-9.81,0
13.843,-9.57,-9.81,0
13.863,-9.57,-9.93,0
13.883,-9.69,-9.93,0
13.903,-9.69,-9.93,0
13.923,-9.81,-9.93,0
13.943,-9.81,-10.06,0
13.963,-9.93,-10.06,0
13.983,-9.93,-10.06,0
14.003,-9.93,-10.06,0
14.023,-9.93,-10.06,0
14.043,-10.06,-10.06,0
14.063,-10.06,-10.06,0
14.083,-10.06,-10.18,0
14.104,-10.06,-10.06,0
14.124,-10.18,-10.18,0
14.144,-10.18,-10.06,0
14.164,-10.06,-10.06,0
14.184,-10.18,-10.18,0
14.204,-10.18,-10.18,0
14.224,-10.18,-10.18,0
14.244,-10.18,-10.18,0
14.264,-10.18,-10.18,0
14.284,-10.06,-10.18,0
14.304,-10.06,-10.18,0
14.324,-10.06,-10.18,0
14.344,-10.18,-10.18,0
14.364,-10.18,-10.18,0
14.384,-10.18,-10.06,0
14.404,-10.18,-10.18,1
14.424,-10.18,-10.18,1
14.444,-10.06,-10.18,1
14.464,-10.06,-10.18,1
14.484,-10.18,-10.18,1
14.504,-10.18,-10.18,1
14.524,-10.18,-10.18,1
14.544,-10.18,-10.18,1
14.564,-10.18,-10.18,1
14.584,-10.18,-10.18,1
14.604,-10.18,-10.3,1
14.624,-10.18,-10.3,1
14.644,-10.18,-10.3,1
14.664,-9.93,-9.93,1
14.684,-9.2,-9.32,1
14.704,-8.71,-8.71,1
14.724,-8.22,-7.86,1
14.744,-7.73,-7.12,1
14.764,-6.88,-6.63,1
14.784,-6.15,-6.39,1
14.804,-5.66,-6.15,1
14.824,-5.29,-5.9,1
14.844,-5.17,-5.66,1
14.864,-5.05,-5.54,1
14.884,-4.92,-5.41,1
14.904,-4.8,-5.29,1
14.905,-4.68,-5.17,1
14.925,-4.56,-5.17,1
14.945,-4.31,-5.17,1
14.965,-4.31,-5.17,0
14.985,-4.31,-5.05,0
15.005,-4.44,-5.17,0
15.025,-4.31,-5.05,0
15.045,-4.19,-5.05,0
15.065,-4.19,-4.92,0
15.085,-4.07,-4.92,0
15.105,-4.07,-4.92,0
15.125,-4.07,-4.8,0
15.145,-4.19,-4.8,0
15.165,-4.31,-4.8,0
15.185,-4.19,-4.8,0
15.205,-4.07,-4.8,0
15.225,-4.07,-4.8,0
15.245,-3.95,-4.8,0
15.265,-3.82,-4.8,0
15.286,-3.95,-4.8,0
15.305,-3.95,-4.8,0
15.306,-4.07,-4.8,0
15.326,-3.95,-4.68,0
15.346,-3.95,-4.68,0
15.366,-3.95,-4.68,0
15.386,-3.82,-4.8,0
15.406,-3.82,-4.8,0
15.426,-3.95,-4.8,0
15.446,-4.07,-4.92,0
15.466,-4.19,-4.92,0
15.486,-3.95,-4.8,0
15.506,-3.95,-4.8,0
15.526,-3.82,-4.68,0
15.546,-3.82,-4.68,0
15.566,-3.82,-4.68,0
15.586,-3.82,-4.68,0
15.606,-3.82,-4.68,0
15.626,-3.95,-4.68,0
15.646,-4.07,-4.68,0
15.666,-4.56,-5.29,0
15.686,-5.78,-6.27,0
15.706,-6.51,-6.88,0
15.726,-7.0,-7.86,0
15.746,-7.37,-8.83,0
15.766,-8.35,-9.32,0
15.786,-9.08,-9.57,0
15.806,-9.45,-9.69,0
15.826,-9.69,-9.81,0
15.846,-9.69,-9.93,0
15.866,-9.81,-9.93,0
15.886,-9.81,-9.93,0
15.906,-9.81,-10.06,0
15.926,-9.81,-9.93,0
15.946,-9.93,-10.06,0
15.966,-9.93,-10.06,0
15.986,-10.06,-10.06,0
16.006,-10.06,-10.06,0
16.026,-10.06,-10.06,0
16.046,-10.06,-10.06,0
16.066,-10.06,-10.06,0
16.086,-10.06,-10.06,0
16.106,-10.18,-10.06,0
16.126,-10.06,-10.06,0
16.146,-10.06,-10.06,0
16.166,-10.06,-10.06,0
16.186,-10.06,-10.18,0
16.206,-10.06,-10.18,0
16.226,-10.06,-10.18,0
16.246,-10.18,-10.18,0
16.266,-10.06,-10.18,0
16.286,-10.06,-10.18,0
16.306,-10.18,-10.18,0
16.326,-10.18,-10.18,0
16.346,-10.06,-10.18,0
16.366,-10.18,-10.18,0
16.386,-10.18,-10.18,1
16.406,-10.18,-10.18,1
16.426,-10.18,-10.18,1
16.446,-10.18,-10.18,1
16.466,-10.18,-10.18,1
16.486,-10.18,-10.18,1
16.506,-10.18,-10.18,1
16.507,-10.18,-10.18,1
16.527,-10.18,-10.18,1
16.547,-10.18,-10.3,1
16.567,-10.18,-10.3,1
16.587,-10.18,-10.3,1
16.607,-10.18,-10.3,1
16.627,-9.93,-9.93,1
16.647,-9.2,-9.32,1
16.667,-8.59,-8.71,1
16.687,-8.22,-7.86,1
16.707,-7.61,-7.12,1
16.727,-6.88,-6.63,1
16.747,-6.15,-6.39,1
16.767,-5.54,-6.15,1
16.787,-5.29,-5.9,1
16.807,-5.17,-5.66,1
16.827,-5.05,-5.54,1
16.847,-4.92,-5.41,1
16.867,-4.68,-5.29,1
16.887,-4.56,-5.29,1
16.907,-4.44,-5.17,1
16.908,-4.31,-5.17,1
16.928,-4.31,-5.05,0
16.948,-4.31,-5.05,0
16.968,-4.31,-5.05,0
16.988,-4.31,-5.05,0
17.008,-4.19,-5.05,0
17.028,-4.19,-4.92,0
17.048,-4.19,-4.92,0
17.068,-4.19,-4.92,0
17.088,-4.19,-4.92,0
17.108,-4.31,-4.92,0
17.128,-4.44,-4.92,0
17.148,-4.31,-4.92,0
17.168,-4.31,-4.8,0
17.188,-4.19,-4.92,0
17.208,-4.07,-4.92,0
17.228,-4.07,-4.92,0
17.248,-4.07,-4.92,0
17.268,-4.07,-4.8,0
17.288,-4.19,-4.8,0
17.308,-3.95,-4.68,0
17.308,-4.07,-4.68,0
17.328,-3.95,-4.68,0
17.348,-3.95,-4.68,0
17.368,-3.95,-4.8,0
17.388,-3.95,-4.8,0
17.408,-4.07,-4.8,0
17.428,-4.07,-4.8,0
17.448,-3.95,-4.8,0
17.468,-3.82,-4.68,0
17.488,-3.82,-4.56,0
17.508,-3.7,-4.56,0
17.528,-3.58,-4.56,0
17.548,-3.58,-4.56,0
17.568,-3.58,-4.56,0
17.588,-3.7,-4.56,0
17.608,-3.7,-4.56,0
17.628,-4.31,-5.17,0
17.648,-5.54,-6.15,0
17.668,-6.27,-6.76,0
17.688,-6.76,-7.73,0
17.708,-7.25,-8.71,0
17.709,-8.22,-9.2,0
17.729,-9.08,-9.57,0
17.749,-9.45,-9.69,0
17.769,-9.69,-9.81,0
17.789,-9.81,-9.93,0
17.809,-9.81,-9.93,0
17.829,-9.93,-9.93,0
17.849,-9.93,-9.93,0
17.869,-9.93,-10.06,0
17.889,-10.06,-10.06,0
17.909,-10.06,-10.18,0
17.929,-10.18,-10.18,0
17.949,-10.18,-10.18,0
17.969,-10.18,-10.18,0
17.989,-10.18,-10.18,0
18.009,-10.18,-10.18,0
18.029,-10.18,-10.18,0
18.049,-10.18,-10.18,0
18.069,-10.18,-10.18,0
18.089,-10.18,-10.18,0
18.109,-10.18,-10.18,0
18.109,-10.18,-10.3,0
18.129,-10.18,-10.3,0
18.149,-10.18,-10.3,0
18.169,-10.18,-10.3,0
18.189,-10.18,-10.3,0
18.209,-10.18,-10.3,0
18.229,-10.18,-10.3,0
18.249,-10.18,-10.3,0
18.269,-10.18,-10.3,0
18.289,-10.18,-10.3,0
18.309,-10.18,-10.3,1
18.329,-10.18,-10.3,1
18.349,-10.18,-10.3,1
18.369,-10.18,-10.3,1
18.389,-10.18,-10.3,1
18.409,-10.18,-10.3,1
18.429,-10.3,-10.3,1
18.449,-10.3,-10.3,1
18.469,-10.3,-10.3,1
18.489,-10.3,-10.3,1
18.509,-10.3,-10.3,1
18.51,-10.3,-10.3,1
18.53,-10.3,-10.3,1
18.55,-9.93,-9.93,1
18.57,-9.2,-9.45,1
18.59,-8.71,-8.71,1
18.61,-8.35,-7.73,1
18.63,-7.61,-7.12,1
18.65,-6.76,-6.63,1
18.67,-6.15,-6.27,1
18.69,-5.54,-6.15,1
18.71,-5.29,-5.78,1
18.73,-5.05,-5.66,1
18.75,-5.05,-5.41,1
18.77,-4.92,-5.29,1
18.79,-4.56,-5.29,1
18.81,-4.56,-5.17,1
18.83,-4.44,-5.17,1
18.85,-4.31,-5.05,1
18.87,-4.19,-5.05,0
18.89,-4.19,-5.05,0
