Time (s),Pressure 1 (kPa),Pressure 2 (kPa),Switch State
0.137,-7.49,-7.86,1
0.157,-7.49,-7.86,1
0.177,-7.49,-7.86,1
0.197,-7.49,-7.86,1
0.217,-7.49,-7.86,1
0.237,-7.49,-7.86,1
0.257,-7.49,-7.86,1
0.277,-7.49,-7.86,1
0.297,-7.49,-7.86,1
0.317,-7.49,-7.98,1
0.337,-7.61,-7.86,1
0.357,-7.61,-7.86,1
0.377,-7.49,-7.86,1
0.398,-7.49,-7.86,1
0.417,-7.61,-7.86,1
0.437,-7.49,-7.98,1
0.457,-7.61,-7.86,1
0.477,-7.61,-7.86,1
0.497,-7.49,-7.86,1
0.517,-7.49,-7.86,1
0.537,-7.61,-7.86,1
0.537,-7.61,-7.86,1
0.558,-7.49,-7.86,1
0.578,-7.49,-7.98,1
0.598,-7.61,-7.86,1
0.618,-7.49,-7.86,1
0.638,-7.49,-7.86,1
0.658,-7.61,-7.98,1
0.678,-7.61,-7.98,1
0.698,-7.61,-7.86,1
0.717,-7.49,-7.98,1
0.738,-7.49,-7.86,1
0.758,-7.61,-7.86,1
0.778,-7.61,-7.98,1
0.798,-7.49,-7.86,1
0.818,-7.61,-7.86,1
0.838,-7.61,-7.86,1
0.858,-7.49,-7.86,1
0.878,-7.49,-7.86,1
0.897,-7.49,-7.86,1
0.918,-7.49,-7.86,1
0.938,-7.61,-7.86,1
0.959,-7.61,-7.86,1
0.979,-7.61,-7.86,1
0.998,-7.49,-7.98,1
1.018,-7.49,-7.86,1
1.039,-7.61,-7.86,1
1.059,-7.61,-7.86,1
1.079,-7.61,-7.86,1
1.099,-7.61,-7.86,1
1.119,-7.61,-7.86,1
1.138,-7.61,-7.86,1
1.159,-7.49,-7.86,1
1.178,-7.61,-7.86,1
1.198,-7.61,-7.86,1
1.218,-7.61,-7.86,1
1.239,-7.61,-7.86,1
1.258,-7.61,-7.86,1
1.279,-7.61,-7.86,1
1.298,-7.49,-7.86,1
1.319,-7.49,-7.86,1
1.339,-7.61,-7.86,1
1.339,-7.49,-7.86,1
1.359,-7.61,-7.86,1
1.38,-7.49,-7.86,1
1.399,-7.61,-7.86,1
1.419,-7.49,-7.86,1
1.44,-7.49,-7.86,1
1.459,-7.49,-7.86,1
1.48,-7.49,-7.86,1
1.499,-7.49,-7.86,1
1.519,-7.49,-7.86,1
1.539,-7.61,-7.86,1
1.559,-7.49,-7.86,1
1.579,-7.61,-7.86,1
1.599,-7.61,-7.86,1
1.619,-7.61,-7.86,1
1.639,-7.49,-7.86,1
1.66,-7.49,-7.86,1
1.679,-7.49,-7.86,1
1.7,-7.49,-7.86,1
1.72,-7.61,-7.86,1
1.739,-7.61,-7.86,1
1.739,-7.49,-7.86,1
1.759,-7.61,-7.86,1
1.78,-7.49,-7.86,1
1.799,-7.61,-7.86,1
1.82,-7.49,-7.86,1
1.839,-7.61,-7.86,1
1.86,-7.61,-7.86,1
1.879,-7.61,-7.86,1
1.9,-7.49,-7.86,1
1.92,-7.49,-7.86,1
1.94,-7.49,-7.86,1
1.96,-7.49,-7.86,1
1.979,-7.61,-7.86,1
2.0,-7.49,-7.86,1
2.02,-7.49,-7.86,1
2.04,-7.61,-7.86,1
2.059,-7.49,-7.86,1
2.08,-7.49,-7.86,1
2.107,-7.61,-7.86,1
2.119,-7.49,-7.86,1
2.14,-7.61,-7.86,1
2.161,-7.49,-7.86,1
2.18,-7.61,-7.86,1
2.2,-7.49,-7.98,1
2.22,-7.61,-7.86,1
2.24,-7.49,-7.86,1
2.261,-7.49,-7.98,1
2.28,-7.49,-7.86,1
2.301,-7.61,-7.86,1
2.32,-7.49,-7.86,1
2.34,-7.61,-7.86,1
2.36,-7.49,-7.86,1
2.38,-7.49,-7.86,1
2.4,-7.49,-7.86,1
2.42,-7.61,-7.86,1
2.441,-7.61,-7.86,1
2.46,-7.49,-7.86,1
2.48,-7.49,-7.86,1
2.5,-7.49,-7.86,1
2.52,-7.61,-7.86,1
2.541,-7.49,-7.86,1
2.541,-7.49,-7.86,1
2.561,-7.49,-7.86,1
2.581,-7.49,-7.86,1
2.601,-7.61,-7.86,1
2.621,-7.61,-7.86,1
2.642,-7.61,-7.86,1
2.662,-7.49,-7.86,1
2.682,-7.61,-7.86,1
2.701,-7.49,-7.86,1
2.722,-7.49,-7.86,1
2.741,-7.49,-7.86,1
2.761,-7.61,-7.86,1
2.781,-7.49,-7.86,1
2.801,-7.49,-7.86,1
2.821,-7.49,-7.86,1
2.842,-7.61,-7.86,1
2.862,-7.61,-7.86,1
2.881,-7.49,-7.86,1
2.902,-7.61,-7.86,1
2.921,-7.49,-7.86,1
2.941,-7.49,-7.86,1
2.961,-7.49,-7.86,1
2.981,-7.49,-7.86,1
3.002,-7.49,-7.86,1
3.022,-7.49,-7.86,1
3.041,-7.49,-7.86,1
3.061,-7.49,-7.86,1
3.082,-7.49,-7.86,1
3.102,-7.49,-7.86,1
3.122,-7.49,-7.86,1
3.142,-7.49,-7.86,1
3.161,-7.61,-7.86,1
3.181,-7.49,-7.86,1
3.201,-7.61,-7.86,1
3.221,-7.61,-7.86,1
3.242,-7.49,-7.86,1
3.262,-7.61,-7.98,1
3.281,-7.61,-7.86,1
3.302,-7.61,-7.86,1
3.322,-7.49,-7.86,1
3.342,-7.61,-7.86,1
3.362,-7.49,-7.86,1
3.382,-7.37,-7.86,1
3.402,-7.37,-7.86,1
3.422,-7.37,-7.86,1
3.443,-7.37,-7.86,1
3.462,-7.37,-7.86,1
3.483,-7.49,-7.86,1
3.503,-7.49,-7.86,1
3.522,-7.49,-7.86,1
3.543,-7.49,-7.86,1
3.562,-7.49,-7.86,1
3.582,-7.49,-7.86,1
3.602,-7.49,-7.86,1
3.623,-7.49,-7.86,1
3.642,-7.61,-7.86,1
3.663,-7.49,-7.86,1
3.682,-7.49,-7.86,1
3.702,-7.61,-7.98,1
3.723,-7.49,-8.22,1
3.742,-7.49,-8.59,1
3.762,-7.61,-8.83,1
3.782,-7.49,-8.96,1
3.802,-7.61,-8.83,1
3.822,-7.49,-8.59,1
3.843,-7.49,-8.47,1
3.862,-7.61,-8.35,1
3.882,-7.49,-8.1,1
3.902,-7.49,-8.1,1
3.922,-7.61,-7.98,1
3.942,-7.49,-7.98,1
3.962,-7.61,-7.98,1
3.982,-7.49,-7.98,1
4.002,-7.49,-7.98,1
4.022,-7.49,-7.86,1
4.042,-7.49,-7.98,1
4.062,-7.49,-7.98,1
4.083,-7.49,-7.86,1
4.102,-7.61,-7.98,1
4.123,-7.49,-7.86,1
4.143,-7.61,-7.98,1
4.163,-7.61,-7.86,1
4.183,-7.49,-7.98,1
4.203,-7.61,-7.86,1
4.223,-7.49,-7.98,1
4.243,-7.49,-7.86,1
4.263,-7.49,-7.86,1
4.284,-7.61,-7.86,1
4.303,-7.49,-7.86,1
4.323,-7.49,-7.98,1
4.343,-7.49,-7.86,1
4.363,-7.49,-7.86,1
4.383,-7.61,-7.86,1
4.403,-7.61,-7.86,1
4.423,-7.49,-7.86,1
4.443,-7.61,-7.86,1
4.463,-7.49,-7.86,1
4.492,-7.49,-7.86,1
4.503,-7.61,-7.86,1
4.523,-7.61,-7.86,1
4.543,-7.49,-7.86,1
4.563,-7.49,-7.86,1
4.583,-7.49,-7.86,1
4.603,-7.49,-7.86,1
4.623,-7.49,-7.86,1
4.643,-7.49,-7.86,1
4.663,-7.37,-7.86,1
4.683,-6.76,-7.61,1
4.703,-6.02,-7.12,1
4.723,-5.66,-6.63,1
4.743,-5.29,-6.27,1
4.763,-5.05,-6.02,1
4.783,-4.92,-5.78,1
4.804,-4.68,-5.54,1
4.823,-4.44,-5.41,1
4.843,-4.44,-5.29,1
4.863,-4.44,-5.29,1
4.883,-4.31,-5.05,1
4.903,-4.19,-5.05,1
4.923,-4.19,-5.05,1
4.943,-4.19,-4.92,1
4.963,-4.19,-4.92,1
4.991,-4.07,-4.92,1
5.003,-4.07,-4.92,0
5.024,-3.95,-4.92,0
5.043,-3.95,-4.92,0
5.063,-3.82,-4.92,0
5.083,-3.82,-4.92,0
5.103,-3.95,-4.8,0
5.123,-3.95,-4.8,0
5.143,-3.95,-4.8,0
5.163,-3.82,-4.8,0
5.183,-3.95,-4.8,0
5.203,-3.82,-4.8,0
5.223,-3.82,-4.8,0
5.243,-3.82,-4.8,0
5.263,-3.95,-4.92,0
5.283,-3.95,-4.8,0
5.303,-3.95,-4.8,0
5.323,-3.82,-4.8,0
5.343,-3.82,-4.8,0
5.364,-3.82,-4.68,0
5.383,-3.82,-4.68,0
5.404,-3.82,-4.68,0
5.423,-3.82,-4.68,0
5.443,-3.82,-4.68,0
5.463,-3.82,-4.68,0
5.483,-3.82,-4.8,0
5.503,-3.95,-4.8,0
5.523,-3.95,-4.8,0
5.543,-3.82,-4.8,0
5.563,-3.7,-4.8,0
5.583,-3.7,-4.68,0
5.603,-3.7,-4.68,0
5.624,-3.7,-4.56,0
5.643,-3.58,-4.56,0
5.664,-3.58,-4.56,0
5.683,-3.58,-4.56,0
5.703,-3.58,-4.68,0
5.723,-3.7,-4.68,0
5.743,-4.19,-5.29,0
5.763,-5.41,-6.27,0
5.783,-6.27,-7.0,0
5.81,-6.76,-8.1,0
5.824,-7.12,-8.96,0
5.844,-8.1,-9.45,0
5.864,-8.83,-9.57,0
5.884,-9.32,-9.69,0
5.904,-9.57,-9.81,0
5.924,-9.69,-9.93,0
5.944,-9.81,-9.93,0
5.963,-9.81,-9.93,0
5.993,-9.93,-10.06,0
6.004,-9.93,-10.06,0
6.024,-9.93,-10.06,0
6.043,-10.06,-10.06,0
6.063,-10.06,-10.18,0
6.084,-10.06,-10.18,0
6.103,-10.06,-10.18,0
6.124,-10.18,-10.06,0
6.144,-10.18,-10.18,0
6.165,-10.18,-10.06,0
6.185,-10.18,-10.18,0
6.205,-10.18,-10.18,0
6.225,-10.18,-10.18,0
6.244,-10.18,-10.18,0
6.265,-10.18,-10.18,0
6.285,-10.18,-10.18,0
6.304,-10.18,-10.18,0
6.326,-10.18,-10.18,0
6.345,-10.18,-10.18,0
6.365,-10.18,-10.18,0
6.384,-10.18,-10.18,0
6.404,-10.18,-10.18,0
6.425,-10.18,-10.18,0
6.444,-10.18,-10.18,0
6.465,-10.3,-10.18,0
6.485,-10.3,-10.18,1
6.504,-10.3,-10.3,1
6.525,-10.18,-10.18,1
6.545,-10.18,-10.18,1
6.545,-10.18,-10.3,1
6.565,-10.18,-10.18,1
6.585,-10.18,-10.18,1
6.605,-10.18,-10.3,1
6.625,-10.3,-10.18,1
6.646,-10.3,-10.3,1
6.666,-10.3,-10.3,1
6.685,-10.3,-10.3,1
6.705,-10.3,-10.18,1
6.725,-10.3,-10.3,1
6.745,-10.06,-10.06,1
6.765,-9.45,-9.45,1
6.785,-8.83,-8.71,1
6.805,-8.47,-7.86,1
6.825,-7.86,-7.12,1
6.846,-7.0,-6.63,1
6.865,-6.39,-6.39,1
6.885,-6.02,-6.15,1
6.906,-5.54,-5.9,1
6.925,-5.17,-5.66,1
6.946,-5.05,-5.54,1
6.946,-4.92,-5.41,1
6.966,-4.8,-5.29,1
6.986,-4.56,-5.29,1
7.006,-4.44,-5.17,1
7.026,-4.44,-5.17,1
7.046,-4.44,-5.05,1
7.067,-4.31,-5.05,0
7.086,-4.19,-5.05,0
7.107,-4.07,-5.05,0
7.126,-4.07,-5.05,0
7.146,-3.95,-5.05,0
7.167,-3.95,-4.92,0
7.187,-4.07,-4.92,0
7.206,-3.95,-4.92,0
7.226,-3.95,-4.92,0
7.246,-3.95,-4.8,0
7.266,-3.95,-4.8,0
7.287,-3.95,-4.8,0
7.306,-3.95,-4.8,0
7.326,-3.95,-4.8,0
7.347,-3.95,-4.92,0
7.347,-4.07,-4.92,0
7.367,-3.95,-4.8,0
7.387,-3.95,-4.8,0
7.407,-3.95,-4.68,0
7.427,-3.95,-4.8,0
7.448,-3.82,-4.68,0
7.467,-3.95,-4.68,0
7.487,-3.95,-4.68,0
7.508,-3.95,-4.68,0
7.527,-3.95,-4.68,0
7.548,-3.95,-4.68,0
7.567,-4.07,-4.68,0
7.587,-3.95,-4.8,0
7.607,-3.95,-4.8,0
7.627,-3.82,-4.68,0
7.647,-3.7,-4.56,0
7.668,-3.7,-4.56,0
7.687,-3.7,-4.56,0
7.707,-3.82,-4.44,0
7.728,-3.82,-4.56,0
7.747,-3.7,-4.44,0
7.747,-3.7,-4.56,0
7.768,-3.7,-4.56,0
7.787,-4.8,-5.54,0
7.807,-5.78,-6.51,0
7.828,-6.63,-7.25,0
7.847,-6.88,-8.47,0
7.868,-7.49,-9.2,0
7.887,-8.47,-9.57,0
7.907,-9.08,-9.69,0
7.927,-9.45,-9.81,0
7.948,-9.57,-9.93,0
7.968,-9.69,-9.93,0
7.987,-9.81,-10.06,0
8.007,-9.93,-10.06,0
8.028,-9.93,-10.06,0
8.047,-9.93,-10.06,0
8.068,-10.06,-10.06,0
8.087,-10.18,-10.18,0
8.107,-10.06,-10.18,0
8.128,-10.18,-10.18,0
8.148,-10.18,-10.18,0
8.169,-10.18,-10.18,0
8.188,-10.18,-10.18,0
8.208,-10.18,-10.18,0
8.229,-10.18,-10.18,0
8.248,-10.18,-10.18,0
8.268,-10.18,-10.18,0
8.289,-10.3,-10.18,0
8.309,-10.18,-10.18,0
8.329,-10.3,-10.18,0
8.348,-10.18,-10.18,0
8.369,-10.18,-10.18,0
8.389,-10.18,-10.18,0
8.409,-10.18,-10.18,0
8.428,-10.18,-10.18,0
8.449,-10.3,-10.18,0
8.469,-10.18,-10.18,0
8.488,-10.3,-10.18,0
8.509,-10.3,-10.18,0
8.529,-10.3,-10.18,1
8.549,-10.18,-10.3,1
8.569,-10.18,-10.3,1
8.589,-10.3,-10.3,1
8.609,-10.3,-10.3,1
8.629,-10.18,-10.3,1
8.649,-10.3,-10.3,1
8.669,-10.3,-10.3,1
8.689,-10.3,-10.3,1
8.71,-10.3,-10.3,1
8.729,-10.3,-10.3,1
8.75,-10.3,-10.3,1
8.769,-10.3,-10.3,1
8.789,-10.3,-10.3,1
8.809,-9.81,-9.81,1
8.829,-9.2,-9.32,1
8.85,-8.71,-8.47,1
8.869,-8.22,-7.49,1
8.889,-7.61,-6.88,1
8.909,-6.76,-6.51,1
8.929,-6.27,-6.27,1
8.95,-5.78,-6.02,1
8.95,-5.29,-5.78,1
8.97,-5.17,-5.66,1
8.99,-4.92,-5.54,1
9.01,-4.8,-5.41,1
9.031,-4.68,-5.29,1
9.05,-4.56,-5.17,1
9.076,-4.44,-5.05,1
9.09,-4.44,-5.05,1
9.11,-4.31,-5.05,1
9.13,-4.19,-4.92,0
9.15,-4.07,-4.92,0
9.17,-4.07,-5.05,0
9.191,-3.95,-4.92,0
9.21,-3.95,-4.92,0
9.23,-4.19,-4.8,0
9.25,-4.07,-4.8,0
9.271,-3.95,-4.8,0
9.29,-3.95,-4.68,0
9.31,-3.95,-4.8,0
9.331,-4.07,-4.8,0
9.35,-3.95,-4.8,0
9.37,-3.95,-4.8,0
9.39,-3.95,-4.8,0
9.41,-4.07,-4.92,0
9.43,-3.95,-4.8,0
9.451,-3.95,-4.8,0
9.47,-3.95,-4.8,0
9.493,-3.95,-4.68,0
9.51,-3.95,-4.68,0
9.53,-3.82,-4.68,0
9.551,-3.95,-4.68,0
9.57,-3.95,-4.68,0
9.59,-3.82,-4.8,0
9.61,-3.95,-4.68,0
9.631,-3.95,-4.8,0
9.651,-3.82,-4.8,0
9.671,-3.95,-4.68,0
9.69,-3.82,-4.68,0
9.711,-3.7,-4.68,0
9.73,-3.7,-4.68,0
9.75,-3.7,-4.56,0
9.75,-3.7,-4.56,0
9.77,-3.7,-4.44,0
9.791,-3.7,-4.56,0
9.811,-3.7,-4.56,0
9.83,-3.7,-4.68,0
9.851,-4.92,-5.78,0
9.87,-6.02,-6.63,0
9.89,-6.63,-7.49,0
9.911,-7.12,-8.71,0
9.931,-7.86,-9.2,0
9.951,-8.83,-9.57,0
9.971,-9.32,-9.69,0
9.993,-9.57,-9.81,0
10.01,-9.81,-9.93,0
10.03,-9.81,-9.93,0
10.05,-9.93,-9.93,0
10.07,-9.93,-9.93,0
10.09,-10.06,-10.06,0
10.111,-10.18,-10.06,0
10.13,-10.18,-10.18,0
10.15,-10.18,-10.18,0
10.171,-10.18,-10.18,0
10.19,-10.18,-10.18,0
10.211,-10.18,-10.18,0
10.231,-10.18,-10.18,0
10.251,-10.18,-10.18,0
10.271,-10.18,-10.18,0
10.291,-10.18,-10.18,0
10.311,-10.18,-10.18,0
10.331,-10.3,-10.18,0
10.35,-10.18,-10.18,0
10.371,-10.18,-10.18,0
10.391,-10.18,-10.3,0
10.411,-10.18,-10.3,0
10.431,-10.18,-10.18,0
10.451,-10.18,-10.18,0
10.471,-10.3,-10.3,0
10.491,-10.18,-10.18,0
10.511,-10.3,-10.3,0
10.531,-10.3,-10.18,0
10.551,-10.3,-10.3,1
10.571,-10.3,-10.18,1
10.592,-10.3,-10.18,1
10.612,-10.3,-10.3,1
10.632,-10.18,-10.3,1
10.652,-10.18,-10.18,1
10.671,-10.18,-10.3,1
10.692,-10.3,-10.18,1
10.712,-10.3,-10.3,1
10.732,-10.3,-10.3,1
10.752,-10.3,-10.3,1
10.771,-10.3,-10.3,1
10.792,-10.3,-10.3,1
10.812,-10.18,-10.18,1
10.832,-9.57,-9.57,1
10.851,-8.96,-8.96,1
10.872,-8.47,-7.98,1
10.891,-7.98,-7.12,1
10.912,-7.25,-6.63,1
10.932,-6.39,-6.27,1
10.951,-5.9,-6.15,1
10.951,-5.41,-5.9,1
10.971,-5.17,-5.66,1
10.992,-5.05,-5.54,1
11.012,-4.8,-5.41,1
11.032,-4.68,-5.29,1
11.052,-4.56,-5.17,1
11.071,-4.56,-5.05,1
11.092,-4.44,-5.05,1
11.111,-4.31,-5.05,1
11.132,-4.19,-5.05,0
11.152,-4.19,-5.05,0
11.172,-4.07,-4.92,0
11.192,-3.95,-4.92,0
11.212,-3.95,-4.92,0
11.232,-4.07,-4.8,0
11.251,-4.07,-4.8,0
11.271,-3.95,-4.8,0
11.292,-3.95,-4.8,0
11.312,-3.95,-4.8,0
11.332,-3.95,-4.68,0
11.352,-3.82,-4.68,0
11.352,-3.95,-4.8,0
11.372,-3.95,-4.68,0
11.392,-3.82,-4.8,0
11.413,-3.95,-4.8,0
11.432,-3.82,-4.68,0
11.452,-3.95,-4.68,0
11.472,-3.82,-4.68,0
11.492,-3.82,-4.68,0
11.512,-3.82,-4.68,0
11.532,-3.82,-4.68,0
11.552,-3.82,-4.68,0
11.572,-3.95,-4.68,0
11.592,-3.82,-4.68,0
11.612,-3.95,-4.68,0
11.632,-3.95,-4.68,0
11.652,-3.7,-4.68,0
11.672,-3.7,-4.56,0
11.692,-3.7,-4.56,0
11.712,-3.7,-4.56,0
11.732,-3.7,-4.56,0
11.752,-3.7,-4.56,0
11.752,-3.7,-4.56,0
11.773,-3.7,-4.68,0
11.793,-4.07,-4.92,0
11.813,-5.29,-6.02,0
11.833,-6.27,-6.88,0
11.853,-6.76,-7.98,0
11.873,-7.25,-8.96,0
11.894,-8.22,-9.45,0
11.913,-8.96,-9.69,0
11.933,-9.45,-9.81,0
11.953,-9.69,-9.93,0
11.972,-9.81,-9.93,0
11.993,-9.93,-10.06,0
12.013,-9.93,-10.06,0
12.033,-9.93,-10.06,0
12.053,-10.06,-10.06,0
12.073,-10.18,-10.06,0
12.093,-10.18,-10.18,0
12.113,-10.18,-10.18,0
12.133,-10.18,-10.18,0
12.153,-10.18,-10.18,0
12.173,-10.18,-10.18,0
12.193,-10.3,-10.18,0
12.214,-10.3,-10.18,0
12.233,-10.3,-10.18,0
12.253,-10.18,-10.18,0
12.274,-10.18,-10.18,0
12.294,-10.3,-10.18,0
12.313,-10.18,-10.18,0
12.333,-10.18,-10.18,0
12.354,-10.3,-10.18,0
12.373,-10.3,-10.18,0
12.393,-10.18,-10.18,0
12.413,-10.18,-10.3,0
12.433,-10.3,-10.18,0
12.454,-10.18,-10.3,0
12.474,-10.3,-10.3,0
12.494,-10.3,-10.3,0
12.513,-10.3,-10.3,1
12.534,-10.3,-10.18,1
12.554,-10.3,-10.3,1
12.574,-10.3,-10.3,1
12.595,-10.18,-10.3,1
12.614,-10.18,-10.3,1
12.635,-10.3,-10.3,1
12.654,-10.3,-10.3,1
12.674,-10.3,-10.3,1
12.694,-10.3,-10.3,1
12.715,-10.42,-10.3,1
12.734,-10.3,-10.3,1
12.755,-10.3,-10.3,1
12.775,-10.06,-9.93,1
12.794,-9.45,-9.32,1
12.814,-8.83,-8.59,1
12.834,-8.35,-7.61,1
12.855,-7.73,-7.0,1
12.874,-6.88,-6.51,1
12.894,-6.27,-6.27,1
12.914,-5.78,-6.02,1
12.935,-5.29,-5.78,1
12.955,-5.05,-5.66,1
12.955,-4.92,-5.54,1
12.976,-4.8,-5.29,1
12.996,-4.56,-5.29,1
13.015,-4.44,-5.17,1
13.036,-4.56,-5.17,1
13.055,-4.44,-5.05,1
13.075,-4.19,-5.05,0
13.096,-4.07,-5.05,0
13.116,-4.07,-5.05,0
13.135,-4.07,-4.92,0
13.155,-3.95,-4.92,0
13.176,-3.95,-4.8,0
13.195,-4.07,-4.8,0
13.216,-3.95,-4.8,0
13.236,-3.95,-4.8,0
13.256,-3.95,-4.8,0
13.275,-3.95,-4.8,0
13.296,-3.95,-4.8,0
13.316,-3.82,-4.8,0
13.336,-3.95,-4.8,0
13.356,-3.95,-4.8,0
13.376,-3.82,-4.8,0
13.397,-3.82,-4.68,0
13.416,-3.82,-4.68,0
13.436,-3.95,-4.68,0
13.456,-3.82,-4.68,0
13.476,-3.82,-4.68,0
13.496,-3.95,-4.68,0
13.516,-3.95,-4.68,0
13.536,-3.82,-4.68,0
13.556,-3.95,-4.68,0
13.576,-3.95,-4.68,0
13.596,-3.95,-4.8,0
13.616,-3.95,-4.68,0
13.636,-3.7,-4.68,0
13.656,-3.82,-4.68,0
13.677,-3.82,-4.56,0
13.696,-3.7,-4.56,0
13.716,-3.7,-4.44,0
13.736,-3.7,-4.56,0
13.756,-3.82,-4.56,0
13.776,-3.7,-4.56,0
13.797,-4.44,-5.29,0
13.817,-5.66,-6.27,0
13.836,-6.39,-7.12,0
13.857,-6.88,-8.35,0
13.876,-7.49,-9.08,0
13.896,-8.47,-9.57,0
13.917,-9.2,-9.69,0
13.936,-9.45,-9.93,0
13.957,-9.69,-9.93,0
13.977,-9.69,-9.93,0
13.996,-9.93,-10.06,0
14.016,-9.93,-10.06,0
14.036,-9.93,-10.06,0
14.056,-10.18,-10.06,0
14.076,-10.18,-10.18,0
14.096,-10.18,-10.18,0
14.116,-10.18,-10.18,0
14.137,-10.18,-10.18,0
14.156,-10.18,-10.18,0
14.177,-10.18,-10.18,0
14.197,-10.3,-10.18,0
14.217,-10.3,-10.18,0
14.237,-10.3,-10.18,0
14.258,-10.18,-10.18,0
14.277,-10.3,-10.18,0
14.298,-10.3,-10.3,0
14.316,-10.3,-10.18,0
14.336,-10.3,-10.18,0
14.358,-10.3,-10.3,0
14.377,-10.3,-10.18,0
14.398,-10.18,-10.18,0
14.416,-10.3,-10.18,0
14.437,-10.18,-10.18,0
14.457,-10.3,-10.18,0
14.477,-10.42,-10.3,0
14.497,-10.3,-10.3,1
14.517,-10.3,-10.3,1
14.537,-10.3,-10.18,1
14.557,-10.3,-10.3,1
14.557,-10.18,-10.3,1
14.577,-10.3,-10.18,1
14.597,-10.18,-10.3,1
14.617,-10.3,-10.3,1
14.637,-10.3,-10.3,1
14.657,-10.3,-10.3,1
14.677,-10.3,-10.3,1
14.697,-10.3,-10.3,1
14.717,-10.3,-10.3,1
14.737,-10.3,-10.3,1
14.757,-9.81,-9.81,1
14.777,-9.2,-9.2,1
14.797,-8.59,-8.35,1
14.818,-8.22,-7.37,1
14.837,-7.37,-6.76,1
14.858,-6.63,-6.51,1
14.878,-6.15,-6.15,1
14.897,-5.66,-5.9,1
14.917,-5.17,-5.78,1
14.937,-4.92,-5.54,1
14.957,-4.8,-5.41,1
14.977,-4.8,-5.29,1
14.998,-4.56,-5.17,1
15.018,-4.56,-5.17,1
15.038,-4.56,-5.05,1
15.058,-4.31,-5.05,1
15.078,-4.19,-5.05,0
15.098,-4.19,-5.05,0
15.118,-4.07,-4.92,0
15.138,-3.95,-4.92,0
15.157,-3.95,-4.92,0
15.178,-4.07,-4.8,0
15.198,-4.07,-4.8,0
15.218,-3.95,-4.68,0
15.238,-3.95,-4.8,0
15.258,-3.95,-4.68,0
15.278,-4.07,-4.8,0
15.298,-3.95,-4.8,0
15.318,-3.95,-4.8,0
15.338,-4.07,-4.8,0
15.358,-3.95,-4.8,0
15.358,-3.82,-4.8,0
15.378,-3.95,-4.68,0
15.398,-3.95,-4.68,0
15.418,-3.95,-4.68,0
15.438,-3.82,-4.68,0
15.458,-3.82,-4.68,0
15.478,-3.95,-4.68,0
15.498,-3.82,-4.68,0
15.518,-3.82,-4.8,0
15.538,-3.95,-4.8,0
15.558,-3.95,-4.8,0
15.578,-3.95,-4.8,0
15.598,-3.82,-4.8,0
15.618,-3.7,-4.68,0
15.638,-3.82,-4.68,0
15.658,-3.7,-4.68,0
15.678,-3.7,-4.56,0
15.698,-3.7,-4.56,0
15.719,-3.7,-4.56,0
15.738,-3.7,-4.68,0
15.758,-3.7,-4.56,0
15.758,-4.8,-5.66,0
15.778,-5.9,-6.63,0
15.798,-6.63,-7.49,0
15.818,-7.0,-8.71,0
15.838,-7.73,-9.2,0
15.858,-8.71,-9.57,0
15.878,-9.2,-9.81,0
15.898,-9.57,-9.81,0
15.919,-9.57,-9.93,0
15.939,-9.81,-9.93,0
15.959,-9.93,-9.93,0
15.979,-9.93,-9.93,0
15.998,-10.06,-10.06,0
16.018,-10.18,-10.06,0
16.038,-10.18,-10.06,0
16.058,-10.18,-10.18,0
16.079,-10.18,-10.18,0
16.098,-10.18,-10.18,0
16.119,-10.18,-10.18,0
16.138,-10.18,-10.18,0
16.158,-10.3,-10.18,0
16.158,-10.3,-10.18,0
16.178,-10.18,-10.18,0
16.198,-10.3,-10.18,0
16.218,-10.3,-10.18,0
16.238,-10.3,-10.18,0
16.259,-10.3,-10.3,0
16.279,-10.3,-10.3,0
16.298,-10.3,-10.3,0
16.318,-10.18,-10.3,0
16.338,-10.18,-10.3,0
16.358,-10.18,-10.18,0
16.379,-10.3,-10.3,0
16.399,-10.3,-10.3,0
16.418,-10.3,-10.3,0
16.439,-10.3,-10.3,1
16.458,-10.3,-10.18,1
16.479,-10.18,-10.3,1
16.498,-10.18,-10.3,1
16.518,-10.18,-10.3,1
16.538,-10.18,-10.3,1
16.559,-10.3,-10.3,1
16.559,-10.3,-10.3,1
16.58,-10.3,-10.3,1
16.6,-10.3,-10.3,1
16.619,-10.3,-10.3,1
16.64,-10.3,-10.3,1
16.659,-10.42,-10.3,1
16.68,-10.3,-10.18,1
16.7,-9.69,-9.57,1
16.719,-9.08,-8.96,1
16.74,-8.59,-8.1,1
16.759,-8.1,-7.25,1
16.779,-7.25,-6.76,1
16.799,-6.51,-6.39,1
16.82,-6.02,-6.02,1
16.839,-5.41,-5.9,1
16.859,-5.17,-5.66,1
16.88,-5.05,-5.54,1
16.899,-4.8,-5.41,1
16.92,-4.68,-5.29,1
16.939,-4.56,-5.17,1
16.959,-4.56,-5.17,1
16.98,-4.44,-5.17,1
16.999,-4.19,-5.05,1
17.019,-4.19,-5.05,0
17.04,-4.07,-5.05,0
17.059,-4.19,-5.05,0
17.08,-4.07,-4.92,0
17.1,-4.07,-4.92,0
17.12,-4.07,-4.8,0
17.14,-3.95,-4.8,0
17.16,-3.95,-4.8,0
17.18,-3.95,-4.8,0
17.2,-3.95,-4.8,0
17.219,-4.07,-4.8,0
17.24,-3.95,-4.8,0
17.259,-3.95,-4.8,0
17.28,-3.95,-4.8,0
17.3,-3.82,-4.8,0
17.319,-3.82,-4.8,0
17.34,-3.82,-4.68,0
17.36,-3.82,-4.8,0
17.38,-3.95,-4.68,0
17.4,-3.82,-4.68,0
17.42,-3.82,-4.68,0
17.44,-3.82,-4.56,0
17.46,-3.82,-4.68,0
17.481,-3.95,-4.68,0
17.5,-3.82,-4.68,0
17.521,-3.95,-4.8,0
17.54,-3.95,-4.68,0
17.561,-3.82,-4.68,0
17.58,-3.7,-4.56,0
17.601,-3.58,-4.56,0
17.62,-3.7,-4.56,0
17.64,-3.7,-4.56,0
17.661,-3.58,-4.56,0
17.681,-3.7,-4.56,0
17.7,-3.7,-4.56,0
17.72,-3.95,-4.92,0
17.741,-5.29,-6.02,0
17.76,-6.15,-6.76,0
17.76,-6.76,-7.86,0
17.781,-7.25,-8.96,0
17.801,-8.1,-9.45,0
17.821,-8.96,-9.69,0
17.841,-9.45,-9.81,0
17.861,-9.69,-9.93,0
17.881,-9.81,-9.93,0
17.901,-9.93,-10.06,0
17.921,-9.93,-10.06,0
17.941,-10.06,-10.06,0
17.961,-10.06,-10.06,0
17.981,-10.18,-10.18,0
18.001,-10.18,-10.18,0
18.021,-10.18,-10.18,0
18.041,-10.18,-10.18,0
18.061,-10.18,-10.18,0
18.081,-10.18,-10.18,0
18.101,-10.3,-10.18,0
18.121,-10.3,-10.18,0
18.141,-10.3,-10.06,0
18.161,-10.3,-10.18,0
18.182,-10.18,-10.18,0
18.201,-10.3,-10.18,0
18.221,-10.18,-10.3,0
18.241,-10.3,-10.18,0
18.261,-10.3,-10.18,0
18.282,-10.3,-10.3,0
18.301,-10.18,-10.3,0
18.321,-10.18,-10.18,0
18.341,-10.18,-10.18,0
18.362,-10.3,-10.18,0
18.381,-10.18,-10.3,0
18.401,-10.3,-10.3,0
18.421,-10.3,-10.3,1
18.442,-10.3,-10.3,1
18.462,-10.3,-10.3,1
18.481,-10.3,-10.18,1
18.501,-10.18,-10.3,1
18.521,-10.3,-10.3,1
18.542,-10.3,-10.3,1
18.562,-10.3,-10.3,1
18.582,-10.3,-10.3,1
18.602,-10.3,-10.3,1
18.622,-10.42,-10.3,1
18.643,-10.42,-10.3,1
18.663,-10.42,-10.3,1
18.682,-10.06,-9.93,1
18.702,-9.45,-9.32,1
18.723,-8.83,-8.71,1
18.742,-8.35,-7.73,1
18.762,-7.73,-7.0,1
18.782,-6.88,-6.51,1
18.802,-6.27,-6.27,1
18.822,-5.78,-6.02,1
18.842,-5.29,-5.78,1
18.862,-5.17,-5.54,1
18.882,-4.92,-5.41,1
18.902,-4.8,-5.41,1
18.922,-4.68,-5.29,1
18.942,-4.56,-5.17,1
18.962,-4.56,-5.17,1
18.983,-4.31,-5.05,1
19.003,-4.19,-5.05,0
19.023,-4.19,-4.92,0
19.043,-4.07,-5.05,0
19.063,-4.07,-5.05,0
19.083,-3.95,-4.92,0
19.103,-4.07,-4.92,0
19.123,-4.07,-4.8,0
19.143,-3.95,-4.8,0
19.163,-3.95,-4.8,0
19.183,-3.95,-4.8,0
19.203,-3.95,-4.8,0
